File: data/processed_data_files/tensile/0.254_solid_uprint_typeiv_090_r(3).dat
MTS793|BTW|ENU|1|2|.|/|:|1|0|0|A

Data Header:			0.254_solid_uprint_typeiv_090_r0			Time:	20.02124	s	4/14/2019 1:04:37 AM
Data Acquisition:	Timed
Station Name:	ft40.cfg
Test File Name:	monotonic_0.2540_typeiv_solid_090_uprint.tst
Displacement	Force	Running Time
mm	N	s
-40.0403	-203.276	0.0229492
-40.0401	-201.98	0.0913086
-40.0353	-199.123	0.159668
-40.0297	-197.96	0.228027
-40.0232	-189.517	0.296387
-40.0184	-184.324	0.364746
-40.0121	-180.153	0.433105
-40.00676	-178.352	0.501465
-40.0001	-171.952	0.569824
-39.9945	-169.996	0.638184
-39.99	-168.684	0.706543
-39.9836	-166.26	0.774902
-39.9767	-164.396	0.843262
-39.9716	-163.097	0.911621
-39.96653	-156.041	0.97998
-39.9616	-148.208	1.04834
-39.9545	-147.117	1.1167
-39.95034	-145.029	1.18506
-39.9436	-138.455	1.253418
-39.9381	-133.78	1.32178
-39.9323	-134.855	1.39014
-39.926	-131.82	1.4585
-39.9207	-128.496	1.52686
-39.9157	-127.901	1.59521
-39.9096	-121.9788	1.66357
-39.9045	-114.692	1.73193
-39.8987	-114.202	1.800293
-39.8929	-111.672	1.86865
-39.8869	-102.957	1.93701
-39.8808	-99.3599	2.00537
-39.8755	-99.5982	2.07373
-39.8693	-97.0496	2.14209
-39.8651	-92.56826	2.21045
-39.8588	-93.4379	2.27881
-39.8529	-89.0324	2.347168
-39.8479	-82.6278	2.41553
-39.8413	-81.2875	2.48389
-39.8361	-78.9526	2.55225
-39.8307	-69.3094	2.62061
-39.8248	-64.0047	2.68896
-39.81945	-66.0824	2.75732
-39.81284	-60.8607	2.82568
-39.8078	-58.0205	2.894043
-39.8015	-56.4261	2.9624
-39.7959	-55.2925	3.03076
-39.79031	-49.6903	3.09912
-39.7844	-47.7933	3.16748
-39.7794	-45.0693	3.23584
-39.7727	-37.22963	3.3042
-39.7677	-31.1014	3.37256
-39.7625	-28.8337	3.440918
-39.7555	-27.2489	3.50928
-39.7511	-23.21563	3.57764
-39.7452	-21.2467	3.646
-39.7401	-20.0079	3.71436
-39.7338	-18.26	3.78271
-39.727	-14.96615	3.85107
-39.7223	-13.5548	3.91943
-39.7183	-4.09822	3.987793
-39.7104	2.17209	4.05615
-39.705	3.47213	4.12451
-39.6984	7.787158	4.19287
-39.6942	10.4261	4.26123
-39.687	13.3221	4.32959
-39.6823	15.1645	4.39795
-39.6757	16.892	4.46631
-39.6697	17.0509	4.534668
-39.6651	20.8046	4.60303
-39.6586	28.5176	4.67139
-39.6545	34.063	4.73975
-39.6496	38.5966	4.80811
-39.6416	42.303	4.87646
-39.6377	44.5338	4.94482
-39.63073	48.237	5.01318
-39.6243	51.7807	5.081543
-39.61879	52.5923	5.1499
-39.614	53.9381	5.21826
-39.6075	55.358	5.28662
-39.603	62.1795	5.35498
-39.5972	67.069	5.42334
-39.5912	69.8343	5.4917
-39.5856	76.54789	5.56006
-39.5801	78.8212	5.628418
-39.5738	83.4466	5.69678
-39.5681	87.1609	5.76514
-39.5628	88.265	5.8335
-39.5573	86.5866	5.90186
-39.552	90.1089	5.97021
-39.5452	95.8172	6.03857
-39.5394	99.1381	6.10693
-39.5347	103.343	6.175293
-39.5282	110.7841	6.24365
-39.5219	113.96	6.31201
-39.517	115.917	6.38037
-39.512	122.2466	6.44873
-39.5063	123.736	6.51709
-39.5006	120.059	6.58545
-39.4942	123.562	6.65381
-39.4884	131.103	6.722168
-39.4823	131.5743	6.79053
-39.4764	132.874	6.85889
-39.472	139.953	6.92725
-39.46735	146.497	6.99561
-39.4596	149.014	7.06396
-39.4542	154.489	7.13232
-39.4493	158.807	7.20068
-39.4434	154.493	7.269043
-39.4374	156.166	7.3374
-39.4319	161.181	7.40576
-39.426	163.304	7.47412
-39.4204	166.536	7.54248
-39.4145	172.6701	7.61084
-39.4089	177.487	7.6792
-39.4029	183.806	7.74756
-39.3974	186.801	7.815918
-39.3922	190.16	7.88428
-39.3861	189.126	7.95264
-39.3806	189.244	8.021
-39.37439	193.927	8.08936
-39.3688	195.017	8.15771
-39.3628	198.23	8.22607
-39.3578	201.9494	8.29443
-39.3523	208.073	8.362793
-39.3453	215.2314	8.43115
-39.3397	218.78	8.49951
-39.3357	222.479	8.56787
-39.3291	222.109	8.63623
-39.3236	224.403	8.70459
-39.3182	227.606	8.77295
-39.3118	228.21	8.84131
-39.3069	229.261	8.909668
-39.3002	233.327	8.97803
-39.2946	238.637	9.04639
-39.2898	244.409	9.11475
-39.284	248.554	9.18311
-39.2784	253.505	9.25146
-39.2718	254.046	9.31982
-39.2665	256.274	9.38818
-39.261	259.834	9.456543
-39.2548	260.52	9.5249
-39.2496	261.177	9.59326
-39.24292	264.602	9.66162
-39.2385	266.347	9.72998
-39.2323	274.7041	9.79834
-39.2262	278.885	9.8667
-39.221	283.138	9.93506
-39.2149	285.131	10.0034
-39.2099	287.383	10.0718
-39.2031	293.155	10.1401
-39.198	291.384	10.2085
-39.19186	293.234	10.2769
-39.1865	295.029	10.3452
-39.181	297.153	10.4136
-39.1751	302	10.4819
-39.1688	308.061	10.5503
-39.1638	311.338	10.6187
-39.1599	312.511	10.687
-39.15229	315.586	10.7554
-39.1461	321.37	10.82373
-39.1396	321.722	10.89209
-39.1356	320.742	10.9604
-39.1302	324.26	11.0288
-39.1238	324.334	11.0972
-39.1181	328.537	11.1655
-39.1129	336.674	11.2339
-39.10717	339.983	11.3022
-39.1013	339.637	11.3706
-39.0957	344.172	11.439
-39.0909	350.572	11.5073
-39.0841	351.513	11.5757
-39.0792	348.309	11.644
-39.073	351.521	11.7124
-39.0678	352.92	11.7808
-39.0606	355.041	11.8491
-39.0561	360.446	11.91748
-39.05	364.1597	11.98584
-39.044	367.217	12.0542
-39.0399	369.686	12.1226
-39.03199	377.615	12.1909
-39.02758	378.365	12.2593
-39.0217	377.734	12.3276
-39.0155	379.529	12.396
-39.0083	380.072	12.4644
-39.0047	379.505	12.5327
-38.9989	384.258	12.6011
-38.9938	388.762	12.6694
-38.9883	388.05	12.7378
-38.982	391.436	12.8062
-38.9753	400.976	12.8745
-38.9708	401.682	12.9429
-38.9648	401.488	13.01123
-38.9583	403.132	13.07959
-38.953	403.819	13.1479
-38.94788	404.48	13.2163
-38.9416	406.009	13.2847
-38.9366	408.324	13.353
-38.9318	409.395	13.4214
-38.9249	413.1203	13.4897
-38.91811	420.357	13.5581
-38.91404	423.405	13.6265
-38.9079	424.135	13.6948
-38.9022	423.907	13.7632
-38.8951	424.297	13.8315
-38.89114	425.436	13.8999
-38.8848	425.561	13.9683
-38.8794	426.987	14.0366
-38.87328	425.776	14.10498
-38.8684	428.605	14.17334
-38.8616	434.196	14.2417
-38.8576	437.617	14.3101
-38.8503	437.509	14.3784
-38.8449	439.9433	14.4468
-38.8386	437.853	14.5151
-38.8349	438.451	14.5835
-38.828	439.063	14.6519
-38.8219	437.042	14.7202
-38.8158	435.64	14.7886
-38.811	439.092	14.8569
-38.8058	444.127	14.9253
-38.7999	445.537	14.9937
-38.7938	447.399	15.062
-38.7867	450.172	15.1304
-38.7817	447.051	15.19873
-38.7764	447.604	15.26709
-38.771	447.251	15.3354
-38.7649	444.4895	15.4038
-38.7585	441.568	15.4722
-38.7539	443.733	15.5405
-38.7482	448.742	15.6089
-38.7423	447.818	15.6772
-38.7366	448.936	15.7456
-38.7315	451.622	15.814
-38.726	449.7218	15.8823
-38.7203	451.973	15.9507
-38.713	449.948	16.019
-38.708	446.594	16.0874
-38.703	443.242	16.1558
-38.6984	442.172	16.2241
-38.6912	448.33	16.29248
-38.6852	447.196	16.36084
-38.6798	447.579	16.4292
-38.6749	451.336	16.4976
-38.6676	451.092	16.5659
-38.6621	450.235	16.6343
-38.6571	449.599	16.7026
-38.6508	449.314	16.771
-38.6453	441.553	16.8394
-38.6397	440.987	16.9077
-38.6344	445.703	16.9761
-38.6282	442.735	17.0444
-38.6236	442.246	17.1128
-38.6173	447.5585	17.1812
-38.6116	446.477	17.2495
-38.6061	447.473	17.3179
-38.5999	446.786	17.38623
-38.5937	445.114	17.45459
-38.5878	439.003	17.5229
-38.58353	438.198	17.5913
-38.5775	440.197	17.6597
-38.5719	439.148	17.728
-38.5658	438.447	17.7964
-38.5608	441.637	17.8647
-38.5542	441.946	17.9331
-38.5489	444.132	18.0015
-38.5437	443.301	18.0698
-38.5368	445.171	18.1382
-38.5313	437.748	18.2065
-38.5266	434.713	18.2749
-38.5197	436.595	18.3433
-38.5139	435.083	18.4116
-38.5098	432.67	18.47998
-38.50317	435.689	18.54834
-38.49699	437.443	18.6167
-38.4926	440.672	18.6851
-38.48748	442.3226	18.7534
-38.4808	440.59	18.8218
-38.4747	435.395	18.8901
-38.4687	434.602	18.9585
-38.4625	435.7876	19.0269
-38.4577	431.094	19.0952
-38.4517	431.686	19.1636
-38.44598	432.861	19.2319
-38.4399	434.895	19.3003
-38.43428	437	19.3687
-38.4298	440.432	19.437
-38.42382	438.677	19.5054
-38.4171	433.7106	19.57373
-38.4124	433.956	19.64209
-38.4072	433.312	19.7104
-38.3998	429.121	19.7788
-38.3955	429.861	19.8472
-38.3899	431.159	19.9155
-38.3841	431.0455	19.9839
-38.3813	434.143	20.0132

Data Header:			0.254_solid_uprint_typeiv_090_r0			Time:	27.8977	s	4/14/2019 1:04:45 AM
Data Acquisition:	Timed
Station Name:	ft40.cfg
Test File Name:	monotonic_0.2540_typeiv_solid_090_uprint.tst
Displacement	Force	Running Time
mm	N	s
-38.3788	431.265	20.0229
-38.3771	433.662	20.0522
-38.3753	433.052	20.0815
-38.3735	432.807	20.11084
-38.3692	432.976	20.1401
-38.3688	431.002	20.1694
-38.3663	436.917	20.19873
-38.3636	431.287	20.228
-38.3613	435.947	20.2573
-38.3591	429.462	20.2866
-38.3567	435.094	20.3159
-38.3533	429.063	20.3452
-38.3509	433.425	20.3745
-38.3481	432.475	20.4038
-38.3469	434.8244	20.4331
-38.3439	428.5733	20.4624
-38.3421	430.599	20.4917
-38.3385	434.2	20.521
-38.3359	431.993	20.5503
-38.3343	433.021	20.57959
-38.3319	429.557	20.6089
-38.33009	435.354	20.6382
-38.3258	427.96	20.66748
-38.3243	433.91	20.6968
-38.3224	427.049	20.7261
-38.3202	437.5228	20.7554
-38.3172	427.278	20.7847
-38.3147	432.577	20.814
-38.3117	427.543	20.8433
-38.3102	434.0329	20.8726
-38.3068	429.067	20.9019
-38.3047	432.39	20.9312
-38.3007	432.148	20.9604
-38.2993	430.443	20.9897
-38.2974	431.851	21.019
-38.2942	429.164	21.04834
-38.29229	433.871	21.0776
-38.2895	428.118	21.1069
-38.2874	433.847	21.13623
-38.2845	427.464	21.1655
-38.2829	434.554	21.1948
-38.2796	423.975	21.2241
-38.2781	435.4574	21.2534
-38.2758	427.095	21.2827
-38.2726	434.348	21.312
-38.2701	424.648	21.3413
-38.2689	433.401	21.3706
-38.2664	429.425	21.3999
-38.2633	430.979	21.4292
-38.26	427.806	21.4585
-38.2576	431.643	21.4878
-38.2558	430.5108	21.51709
-38.25248	425.15	21.5464
-38.2507	430.107	21.5757
-38.2485	428.7037	21.60498
-38.2464	433.638	21.6343
-38.2433	427.122	21.6636
-38.2411	433.204	21.6929
-38.2393	427.14	21.7222
-38.2365	431.549	21.7515
-38.23241	425.17	21.7808
-38.231	434.17	21.8101
-38.2276	429.282	21.8394
-38.2272	432.371	21.8687
-38.2236	427.428	21.8979
-38.2216	431.339	21.9272
-38.2189	428.498	21.9565
-38.2168	430.4209	21.98584
-38.2143	432.145	22.0151
-38.2109	429.463	22.0444
-38.2097	430.976	22.07373
-38.2077	427.974	22.103
-38.2034	433.419	22.1323
-38.20192	427.332	22.1616
-38.2	431.822	22.1909
-38.19733	427.893	22.2202
-38.1942	432.847	22.2495
-38.19154	425.586	22.2788
-38.1899	429.022	22.3081
-38.187	429.638	22.3374
-38.1835	430.17	22.3667
-38.1824	428.721	22.396
-38.1804	426.912	22.4253
-38.178	430.555	22.45459
-38.1749	424.765	22.4839
-38.1732	430.493	22.5132
-38.1693	425.177	22.54248
-38.1687	434.781	22.5718
-38.1646	423.281	22.6011
-38.1628	431.966	22.6304
-38.1607	422.465	22.6597
-38.1582	432.188	22.689
-38.1556	423.915	22.7183
-38.1529	429.718	22.7476
-38.15	426.757	22.7769
-38.1487	430.7012	22.8062
-38.1457	425.854	22.8354
-38.1433	427.416	22.8647
-38.1409	431.131	22.894
-38.138	429.247	22.92334
-38.1362	430.868	22.9526
-38.13472	427.503	22.9819
-38.1311	431.193	23.01123
-38.1289	423.665	23.0405
-38.1266	432.432	23.0698
-38.124	425.22	23.0991
-38.1215	431.974	23.1284
-38.1199	421.4574	23.1577
-38.1168	431.057	23.187
-38.1132	424.753	23.2163
-38.1117	431.834	23.2456
-38.1092	422.559	23.2749
-38.1065	431.095	23.3042
-38.1045	427.657	23.3335
-38.1021	426.528	23.3628
-38.1003	424.58	23.39209
-38.0966	427.664	23.4214
-38.09494	430.818	23.4507
-38.09235	423.577	23.47998
-38.08997	430.093	23.5093
-38.0868	423.824	23.5386
-38.0842	429.516	23.5679
-38.08226	421.932	23.5972
-38.0809	430.297	23.6265
-38.0774	426.332	23.6558
-38.0756	429.264	23.6851
-38.0718	423.305	23.7144
-38.0705	429.272	23.7437
-38.0675	425.445	23.7729
-38.065	427.635	23.8022
-38.0634	426.457	23.8315
-38.0605	426.905	23.86084
-38.0574	427.153	23.8901
-38.05629	424.562	23.9194
-38.054	426.869	23.94873
-38.0502	425.053	23.978
-38.048	427.6	24.0073
-38.0466	422.057	24.0366
-38.0431	429.201	24.0659
-38.0417	422.402	24.0952
-38.0383	426.215	24.1245
-38.0363	423.068	24.1538
-38.0334	427.967	24.1831
-38.0307	424.489	24.2124
-38.0274	422.072	24.2417
-38.025	422.598	24.271
-38.0247	423.248	24.3003
-38.0218	422.588	24.32959
-38.0196	416.858	24.3589
-38.0171	426.927	24.3882
-38.0134	417.401	24.41748
-38.011	418.784	24.4468
-38.0096	409.345	24.4761
-38.00349	-52.9248	24.5054
-38.0026	-41.848	24.5347
-38.0004	-40.402	24.564
-37.9993	-47.071	24.5933
-37.995	-39.1877	24.6226
-37.995	-46.4673	24.6519
-37.9931	-42.6165	24.6812
-37.9895	-43.6081	24.7104
-37.9854	-41.2845	24.7397
-37.9838	-42.8206	24.769
-37.9829	-44.741	24.79834
-37.97998	-41.627	24.8276
-37.9776	-45.3086	24.8569
-37.9755	-37.7341	24.88623
-37.97163	-46.4405	24.9155
-37.9701	-38.7957	24.9448
-37.9671	-46.457	24.9741
-37.96542	-38.8105	25.0034
-37.9623	-45.6722	25.0327
-37.9604	-37.6281	25.062
-37.9581	-46.1964	25.0913
-37.9546	-38.9204	25.1206
-37.95319	-43.5778	25.1499
-37.9497	-39.9589	25.1792
-37.9481	-45.6667	25.2085
-37.9456	-41.2568	25.2378
-37.9422	-39.2082	25.26709
-37.9407	-45.1412	25.2964
-37.938	-42.4576	25.3257
-37.9364	-43.1837	25.35498
-37.933	-40.9646	25.3843
-37.9311	-45.722	25.4136
-37.929	-40.4009	25.4429
-37.926	-44.453	25.4722
-37.9233	-38.481	25.5015
-37.9211	-47.81559	25.5308
-37.9181	-41.9843	25.5601
-37.9167	-42.3827	25.5894
-37.9134	-41.4627	25.6187
-37.9103	-43.02235	25.6479
-37.9089	-43.0913	25.6772
-37.907	-42.2551	25.7065
-37.9043	-46.0718	25.73584
-37.9013	-40.7733	25.7651
-37.8997	-42.3662	25.7944
-37.8963	-39.9	25.82373
-37.893	-46.0504	25.853
-37.8922	-40.9804	25.8823
-37.889	-45.29961	25.9116
-37.8876	-40.39188	25.9409
-37.8841	-44.2441	25.9702
-37.8815	-38.0021	25.9995
-37.8794	-43.8106	26.0288
-37.8764	-41.2769	26.0581
-37.8746	-43.4512	26.0874
-37.8724	-42.412	26.1167
-37.87	-39.0305	26.146
-37.86742	-44.3767	26.1753
-37.8641	-39.2572	26.20459
-37.8634	-44.98801	26.2339
-37.8604	-40.7617	26.2632
-37.8574	-48.5838	26.29248
-37.8557	-37.0058	26.3218
-37.8523	-45.2461	26.3511
-37.84977	-38.40451	26.3804
-37.8477	-48.2451	26.4097
-37.8455	-38.2136	26.439
-37.8424	-45.5903	26.4683
-37.8407	-41.001	26.4976
-37.8384	-44.35236	26.5269
-37.8357	-37.6031	26.5562
-37.8329	-44.0125	26.5854
-37.8311	-43.7871	26.6147
-37.8272	-43.1482	26.644
-37.8251	-40.2918	26.67334
-37.8242	-39.4688	26.7026
-37.821	-43.7115	26.7319
-37.8185	-38.7508	26.76123
-37.8161	-46.1364	26.7905
-37.8128	-39.61602	26.8198
-37.811	-46.2446	26.8491
-37.8088	-36.2995	26.8784
-37.80632	-45.9862	26.9077
-37.8041	-38.9068	26.937
-37.8022	-45.30875	26.9663
-37.7988	-39.0654	26.9956
-37.7965	-45.1832	27.0249
-37.7942	-39.4626	27.0542
-37.7918	-42.8146	27.0835
-37.7898	-40.588	27.1128
-37.7866	-43.3956	27.14209
-37.78569	-44.5042	27.1714
-37.7822	-40.476	27.2007
-37.7794	-42.9388	27.22998
-37.7774	-40.292	27.2593
-37.7748	-43.3928	27.2886
-37.7731	-38.3378	27.3179
-37.771	-46.629	27.3472
-37.7668	-41.404	27.3765
-37.7662	-43.185	27.4058
-37.7623	-38.7266	27.4351
-37.7597	-45.0334	27.4644
-37.75647	-43.5165	27.4937
-37.7557	-42.3258	27.5229
-37.752	-43.5917	27.5522
-37.75034	-43.2844	27.5815
-37.7481	-44.6259	27.61084
-37.7451	-39.6085	27.6401
-37.7429	-45.25843	27.6694
-37.7407	-39.9314	27.69873
-37.7375	-44.8658	27.728
-37.73579	-38.9093	27.7573
-37.734	-45.0995	27.7866
-37.7303	-40.709	27.8159
-37.7275	-44.3157	27.8452
-37.7258	-41.0611	27.8745
-37.7255	-38.5689	27.8843