File: data/processed_data_files/tensile/0.254_solid_dimension_typei_090_r(4).dat
MTS793|BTW|ENU|1|2|.|/|:|1|0|0|A

Data Header:			0.254_solid_dimension_typei_090_r0			Time:	20.0195	s	4/15/2019 2:21:31 PM
Data Acquisition:	Timed
Station Name:	ft40.cfg
Test File Name:	monotonic_0.2540_typei_solid_090_dimension.tst
Displacement	Force	Running Time
mm	N	s
9.97107	-122.511	0.0224609
9.97484	-121.605	0.0908203
9.97952	-113.63	0.15918
9.9871	-108.7072	0.227539
9.99347	-104.956	0.295898
9.99836	-99.1898	0.364258
10.0042	-93.1081	0.432617
10.0088	-90.6263	0.500977
10.0152	-88.8958	0.569336
10.0203	-86.7339	0.637695
10.0278	-85.8493	0.706055
10.0325	-82.5033	0.774414
10.038	-75.0847	0.842773
10.04429	-71.1482	0.911133
10.0502	-67.2809	0.979492
10.0551	-59.8893	1.04785
10.0601	-51.8938	1.11621
10.0659	-51.0834	1.18457
10.0726	-48.4972	1.25293
10.0788	-45.959	1.32129
10.0829	-45.4396	1.38965
10.0895	-42.8588	1.45801
10.0957	-36.2486	1.52637
10.09965	-34.383	1.59473
10.1059	-30.3643	1.66309
10.1118	-20.7399	1.73145
10.1177	-12.3369	1.7998
10.1228	-11.0529	1.86816
10.1287	-7.88203	1.93652
10.1345	-1.69175	2.00488
10.1389	-5.15251	2.07324
10.1461	-2.08669	2.1416
10.1517	3.08309	2.20996
10.1571	5.647325	2.27832
10.1621	8.677907	2.34668
10.16928	17.54068	2.41504
10.1739	27.30596	2.4834
10.1807	28.9014	2.55176
10.1858	35.706	2.62012
10.1919	39.99493	2.68848
10.1974	39.4234	2.75684
10.203	42.3618	2.8252
10.2095	46.888	2.89355
10.21425	46.2978	2.96191
10.2201	48.78693	3.03027
10.2257	59.1718	3.09863
10.2307	67.3645	3.16699
10.2371	69.1568	3.23535
10.2424	78.242	3.30371
10.2483	82.6203	3.37207
10.2538	83.2378	3.44043
10.2596	83.6675	3.50879
10.2656	88.7036	3.57715
10.2714	88.0507	3.64551
10.2764	89.3282	3.71387
10.2823	98.1989	3.78223
10.2876	105.151	3.85059
10.2939	110.957	3.91895
10.2994	116.653	3.9873
10.305	123.238	4.05566
10.3117	127.479	4.12402
10.31677	128.641	4.19238
10.3228	129.508	4.26074
10.3276	127.357	4.3291
10.3345	132.745	4.39746
10.3396	138.179	4.46582
10.34616	142.499	4.53418
10.3505	150.192	4.60254
10.3566	157.434	4.6709
10.36269	162.032	4.73926
10.36722	168.966	4.80762
10.3743	172.828	4.87598
10.3801	171.645	4.94434
10.3841	171.27	5.0127
10.39043	174.432	5.08105
10.396	179.091	5.14941
10.4027	181.804	5.21777
10.4081	190.859	5.28613
10.4137	196.6898	5.35449
10.4185	201.473	5.42285
10.4251	210.617	5.49121
10.4312	215.261	5.55957
10.43685	212.341	5.62793
10.4426	215.495	5.69629
10.4481	218.247	5.76465
10.4545	220.656	5.83301
10.4595	222.6805	5.90137
10.4646	230.14	5.96973
10.4709	237.14	6.03809
10.4763	241.813	6.10645
10.482	251.389	6.1748
10.4881	254.5105	6.24316
10.4932	254.168	6.31152
10.4994	257.274	6.37988
10.5051	261.915	6.44824
10.5109	261.049	6.5166
10.5152	263.299	6.58496
10.5223	270.108	6.65332
10.5278	274.761	6.72168
10.5324	280.585	6.79004
10.5395	289.492	6.8584
10.5448	295.918	6.92676
10.54987	295.97	6.99512
10.5567	299.249	7.06348
10.5605	305.108	7.13184
10.5676	304.32	7.2002
10.57363	303.732	7.26855
10.5785	310.311	7.33691
10.5857	315.157	7.40527
10.5898	320.788	7.47363
10.59586	327.424	7.54199
10.6011	334.457	7.61035
10.6082	334.293	7.67871
10.6132	342.373	7.74707
10.619	348.598	7.81543
10.6245	345.576	7.88379
10.6303	347.463	7.95215
10.6366	350.937	8.02051
10.6405	352.535	8.08887
10.6474	358.73	8.15723
10.6533	366.31	8.22559
10.6588	372.571	8.29395
10.6637	374.895	8.3623
10.6705	382.82	8.43066
10.6745	388.007	8.49902
10.6819	387.864	8.56738
10.6864	388.447	8.63574
10.6914	391.469	8.7041
10.69792	391.684	8.77246
10.7046	396.821	8.84082
10.71	403.466	8.90918
10.7146	408.711	8.97754
10.7215	414.104	9.0459
10.7279	422.737	9.11426
10.7327	428.852	9.18262
10.7391	429.705	9.25098
10.7433	432.526	9.31934
10.7494	432.116	9.3877
10.7557	432.794	9.45605
10.7607	436.748	9.52441
10.7671	440.937	9.59277
10.7727	445.847	9.66113
10.778	451.824	9.72949
10.784	463.3	9.79785
10.78891	467.122	9.86621
10.7946	470.951	9.93457
10.8003	474.7197	10.00293
10.8069	472.342	10.0713
10.8126	474.01	10.1396
10.81832	478.521	10.208
10.8234	478.498	10.2764
10.8297	481.495	10.3447
10.8354	489.836	10.4131
10.8404	499.268	10.4814
10.8471	503.522	10.5498
10.8529	510.9024	10.6182
10.8576	513.645	10.6865
10.8632	512.999	10.7549
10.8688	516.015	10.8232
10.875	517.427	10.8916
10.87997	516.358	10.96
10.8863	517.325	11.02832
10.8925	525.485	11.09668
10.8975	536.4469	11.165
10.9038	539.869	11.2334
10.9091	547.343	11.3018
10.9145	552.516	11.3701
10.9208	553.81	11.4385
10.9272	555.872	11.5068
10.9319	557.26	11.5752
10.9375	553.872	11.6436
10.943	555.683	11.7119
10.9476	565.787	11.7803
10.9549	570.437	11.8486
10.9606	575.269	11.917
10.9663	584.464	11.9854
10.9722	591.688	12.0537
10.9772	592.8443	12.12207
10.9834	594.679	12.19043
10.9892	597.636	12.2588
10.9941	591.853	12.3271
10.99989	594.086	12.3955
11.0066	603.16	12.4639
11.0122	605.444	12.5322
11.0177	609.194	12.6006
11.0229	618.648	12.6689
11.0294	624.821	12.7373
11.0332	632.344	12.8057
11.0406	634.062	12.874
11.0459	636.456	12.9424
11.0513	631.854	13.0107
11.0563	632.92	13.0791
11.0638	638.5976	13.1475
11.0684	641.084	13.21582
11.0737	645.693	13.28418
11.07991	652.866	13.3525
11.086	660.927	13.4209
11.0911	667.22	13.4893
11.0976	671.612	13.5576
11.1028	673.153	13.626
11.109	671.878	13.6943
11.1144	671.78	13.7627
11.12	674.669	13.8311
11.1264	676.379	13.8994
11.131	681.29	13.9678
11.1362	687.043	14.0361
11.1437	694.735	14.1045
11.1472	701.489	14.1729
11.1549	706.353	14.2412
11.1607	707.714	14.30957
11.1648	710.6424	14.37793
11.171	710.243	14.4463
11.1771	712.326	14.5146
11.182	712.6087	14.583
11.1877	715.037	14.6514
11.1951	721.715	14.7197
11.1995	728.862	14.7881
11.2054	736.172	14.8564
11.2105	741.384	14.9248
11.2161	742.628	14.9932
11.2218	745.069	15.0615
11.2281	749.363	15.1299
11.2336	750.508	15.1982
11.2393	748.051	15.2666
11.2444	751.951	15.335
11.2505	755.108	15.40332
11.2571	760.636	15.47168
11.2619	766.9187	15.54
11.26768	773.172	15.6084
11.27384	776.848	15.6768
11.2801	782.227	15.7451
11.2849	786.451	15.8135
11.291	784.683	15.8818
11.29722	786.055	15.9502
11.3024	788.241	16.0186
11.3077	786.589	16.0869
11.3144	792.685	16.1553
11.3189	799.196	16.2236
11.324	803.081	16.292
11.3307	808.543	16.3604
11.3365	814.956	16.4287
11.3419	820.8772	16.49707
11.3483	819.231	16.56543
11.3538	821.751	16.6338
11.3595	820.361	16.7021
11.3637	819.889	16.7705
11.3696	823.782	16.8389
11.3758	831.369	16.9072
11.3824	833.053	16.9756
11.388	836.64	17.0439
11.3937	847.227	17.1123
11.399	851.88	17.1807
11.40467	852.163	17.249
11.4106	854.849	17.3174
11.415	854.446	17.3857
11.4205	853.285	17.4541
11.4279	856.9248	17.5225
11.4333	862.268	17.59082
11.43734	860.314	17.65918
11.4458	866.126	17.7275
11.4507	877.273	17.7959
11.4558	882.292	17.8643
11.46111	881.745	17.9326
11.4673	885.9	18.001
11.4722	885.918	18.0693
11.4792	886.276	18.1377
11.4846	886.396	18.2061
11.4898	888.549	18.2744
11.4966	889.377	18.3428
11.5007	893.347	18.4111
11.5069	903.7121	18.4795
11.5132	907.207	18.5479
11.5178	911.868	18.6162
11.5233	915.632	18.68457
11.5308	915.971	18.75293
11.53522	914.752	18.8213
11.5403	914.5733	18.8896
11.5462	916.093	18.958
11.5521	916.746	19.0264
11.5584	919.386	19.0947
11.5643	929.479	19.1631
11.5689	933.6416	19.2314
11.5746	937.267	19.2998
11.5805	942.925	19.3682
11.5867	943.713	19.4365
11.5927	944.491	19.5049
11.5982	944.361	19.5732
11.6034	942.933	19.6416
11.6099	940.301	19.71
11.6155	946.042	19.77832
11.6212	949.244	19.84668
11.6261	955.617	19.915
11.6326	960.92	19.9834
11.6349	959.601	20.0127

Data Header:			0.254_solid_dimension_typei_090_r0			Time:	40.0195	s	4/15/2019 2:21:51 PM
Data Acquisition:	Timed
Station Name:	ft40.cfg
Test File Name:	monotonic_0.2540_typei_solid_090_dimension.tst
Displacement	Force	Running Time
mm	N	s
11.6352	953.937	20.0225
11.6408	957.861	20.09082
11.6477	955.876	20.15918
11.65258	962.593	20.2275
11.6582	972.179	20.2959
11.6647	972.752	20.3643
11.6693	975.656	20.4326
11.6757	978.571	20.501
11.6813	976.8894	20.5693
11.6868	976.918	20.6377
11.6926	976.87	20.7061
11.6981	975.92	20.7744
11.7044	974.895	20.8428
11.709	981.655	20.9111
11.71534	988.68	20.9795
11.7211	990.658	21.0479
11.7263	993.892	21.1162
11.7332	997.904	21.18457
11.7385	995.739	21.25293
11.744	993.463	21.3213
11.7493	994.975	21.3896
11.7548	991.375	21.458
11.7611	991.349	21.5264
11.7652	995.068	21.5947
11.7728	1001.5	21.6631
11.7776	1003.9	21.7314
11.7836	1007.44	21.7998
11.7884	1011.53	21.8682
11.7956	1010.29	21.9365
11.8009	1009.775	22.0049
11.8068	1007.33	22.0732
11.8129	1003.48	22.1416
11.8184	1002.64	22.21
11.8234	1007.91	22.27832
11.8295	1007.28	22.34668
11.8346	1010.98	22.415
11.8404	1016.53	22.4834
11.8469	1018.38	22.5518
11.8526	1021.93	22.6201
11.8569	1019.71	22.6885
11.8631	1017.63	22.7568
11.8698	1012.53	22.8252
11.8748	1012.52	22.8936
11.8798	1012.68	22.9619
11.8863	1013.63	23.0303
11.89236	1016.12	23.0986
11.8983	1020	23.167
11.904	1021.16	23.2354
11.9087	1026.131	23.3037
11.9143	1027.42	23.37207
11.9204	1023.38	23.44043
11.9263	1018.35	23.5088
11.9309	1017.03	23.5771
11.9372	1017.99	23.6455
11.9436	1014.83	23.7139
11.948	1016.85	23.7822
11.9548	1022.05	23.8506
11.9602	1021.3	23.9189
11.9655	1026.04	23.9873
11.9722	1029.63	24.0557
11.9775	1025.4	24.124
11.9827	1019.75	24.1924
11.9889	1021.63	24.2607
11.9946	1020.87	24.3291
11.9999	1015.63	24.3975
12.0058	1018.04	24.46582
12.0106	1021.3	24.53418
12.0175	1020.93	24.6025
12.023	1025.23	24.6709
12.029	1027.55	24.7393
12.0336	1026.97	24.8076
12.0399	1021.42	24.876
12.0466	1023.84	24.9443
12.0513	1021.48	25.0127
12.0567	1015.93	25.0811
12.06328	1016.72	25.1494
12.0679	1017.96	25.2178
12.0744	1017.1	25.2861
12.07979	1020.57	25.3545
12.0862	1024.39	25.4229
12.091	1020.85	25.4912
12.0956	1021.3	25.55957
12.1023	1024.36	25.62793
12.1083	1020.22	25.6963
12.1138	1014.76	25.7646
12.1206	1014.45	25.833
12.1251	1014.57	25.9014
12.1306	1015.06	25.9697
12.138	1016.31	26.0381
12.1435	1019.753	26.1064
12.14756	1017.99	26.1748
12.15335	1017.856	26.2432
12.15965	1021.732	26.3115
12.1661	1019.25	26.3799
12.1713	1014.49	26.4482
12.1769	1011.11	26.5166
12.18187	1008.25	26.585
12.1873	1012	26.65332
12.1942	1011.42	26.72168
12.1988	1013.25	26.79
12.2054	1012.76	26.8584
12.2116	1017.92	26.9268
12.2161	1019	26.9951
12.2231	1016.94	27.0635
12.228	1013.37	27.1318
12.2343	1011.38	27.2002
12.2399	1006.23	27.2686
12.2441	1006.06	27.3369
12.2507	1007.67	27.4053
12.2564	1005.54	27.4736
12.263	1007.786	27.542
12.2684	1012.98	27.6104
12.2733	1014.54	27.6787
12.2783	1012.78	27.74707
12.2849	1013.55	27.81543
12.2906	1008.97	27.8838
12.2957	1004.65	27.9521
12.3016	1005.07	28.0205
12.3074	1005.36	28.0889
12.3136	1001.58	28.1572
12.3193	1002.62	28.2256
12.32466	1011.81	28.2939
12.3309	1010.77	28.3623
12.33657	1011.77	28.4307
12.3422	1012.22	28.499
12.3477	1007.39	28.5674
12.3537	1005.14	28.6357
12.3589	1002.45	28.7041
12.3645	1000.812	28.7725
12.3705	997.237	28.84082
12.3766	999.183	28.90918
12.382	1006.79	28.9775
12.3879	1005.82	29.0459
12.3932	1008.64	29.1143
12.3993	1010.41	29.1826
12.4049	1008.9	29.251
12.4103	1004.66	29.3193
12.4162	1002.75	29.3877
12.42084	998.631	29.4561
12.4271	993.814	29.5244
12.4333	997.327	29.5928
12.4383	1003.09	29.6611
12.4451	1001.57	29.7295
12.4503	1006.02	29.7979
12.4562	1009.36	29.8662
12.4608	1006.79	29.93457
12.467	1004.65	30.00293
12.4723	1003.07	30.0713
12.4792	998.984	30.1396
12.4844	992.015	30.208
12.491	996.411	30.2764
12.49641	999.25	30.3447
12.5014	998.398	30.4131
12.5064	1002.33	30.4814
12.5126	1007.04	30.5498
12.5189	1006.87	30.6182
12.5239	1005.594	30.6865
12.5305	1004.71	30.7549
12.5354	998.662	30.8232
12.5414	993.991	30.8916
12.5476	995.602	30.96
12.5526	997.592	31.02832
12.5583	997.002	31.09668
12.564	998.6579	31.165
12.5692	1002.74	31.2334
12.5749	1005.4	31.3018
12.58	1004.13	31.3701
12.5875	1005.03	31.4385
12.5928	1000.26	31.5068
12.5976	995.037	31.5752
12.6043	996.462	31.6436
12.6087	994.842	31.7119
12.6153	994.645	31.7803
12.6215	996.246	31.8486
12.6261	998.893	31.917
12.633	1003.72	31.9854
12.6376	1005.2	32.0537
12.6436	1001.98	32.12207
12.6492	999.706	32.19043
12.6557	997.717	32.2588
12.6604	997.041	32.3271
12.6675	994.292	32.3955
12.6728	993.755	32.4639
12.6779	995.936	32.5322
12.68336	998.679	32.6006
12.6895	1001.57	32.6689
12.6951	1004.67	32.7373
12.7004	1004.12	32.8057
12.7073	998.351	32.874
12.7125	1001.21	32.9424
12.7174	997.652	33.0107
12.7234	994.569	33.0791
12.7292	993.975	33.1475
12.7356	993.437	33.21582
12.7408	994.512	33.28418
12.7472	999.585	33.3525
12.7523	1002.04	33.4209
12.7585	998.933	33.4893
12.7631	1002.28	33.5576
12.769	1001.945	33.626
12.775	998.358	33.6943
12.78102	995.486	33.7627
12.7865	994.324	33.8311
12.7905	992.492	33.8994
12.7979	992.817	33.9678
12.804	997.747	34.0361
12.8091	999.878	34.1045
12.8154	997.889	34.1729
12.8204	1000.18	34.2412
12.8267	1004.38	34.30957
12.8315	998.8515	34.37793
12.8373	996.682	34.4463
12.8437	997.1731	34.5146
12.8488	992.873	34.583
12.8544	992.466	34.6514
12.8604	995.477	34.7197
12.866	996.537	34.7881
12.8721	993.972	34.8564
12.8777	999.2323	34.9248
12.883	1006.09	34.9932
12.8887	1002.34	35.0615
12.8944	1000.61	35.1299
12.8995	998.186	35.1982
12.9054	993.1748	35.2666
12.9121	992.008	35.335
12.9174	994.8421	35.40332
12.9235	994.2132	35.47168
12.9294	993.478	35.54
12.9359	999.919	35.6084
12.9404	1003.59	35.6768
12.9454	1000.86	35.7451
12.9514	1001.65	35.8135
12.9583	999.163	35.8818
12.9628	996.781	35.9502
12.969	991.807	36.0186
12.97444	993.228	36.0869
12.9799	992.6748	36.1553
12.9849	990.378	36.2236
12.9916	997.999	36.292
12.9976	1002.47	36.3604
13.0035	1001.73	36.4287
13.009	1001.54	36.49707
13.0131	999.8454	36.56543
13.0194	996.99	36.6338
13.0254	994.8916	36.7021
13.0313	992.5	36.7705
13.0382	989.777	36.8389
13.0421	991.456	36.9072
13.0482	996.348	36.9756
13.0544	998.527	37.0439
13.0604	1000.42	37.1123
13.066	1001.35	37.1807
13.0709	999.414	37.249
13.0779	999.419	37.3174
13.0825	995.094	37.3857
13.0886	991.564	37.4541
13.0933	989.006	37.5225
13.0996	989.028	37.59082
13.105	993.652	37.65918
13.1109	995.718	37.7275
13.1165	998.988	37.7959
13.1217	1001.44	37.8643
13.1279	1000.96	37.9326
13.1339	1000.78	38.001
13.1391	998.744	38.0693
13.14509	991.871	38.1377
13.15013	990.298	38.2061
13.1565	991.47	38.2744
13.1631	992.521	38.3428
13.1686	992.651	38.4111
13.1738	997.729	38.4795
13.17951	999.315	38.5479
13.1853	999.996	38.6162
13.1902	1002.27	38.68457
13.1968	1000.34	38.75293
13.2017	993.902	38.8213
13.2083	990.736	38.8896
13.214	993.526	38.958
13.2192	991.124	39.0264
13.2254	989.753	39.0947
13.231	995.152	39.1631
13.2357	995.785	39.2314
13.2427	999.934	39.2998
13.24752	1001.54	39.3682
13.2541	1003.49	39.4365
13.259	993.989	39.5049
13.2646	991.521	39.5732
13.2702	994.821	39.6416
13.27637	989.304	39.71
13.2821	989.489	39.77832
13.2876	994.013	39.84668
13.2944	994.816	39.915
13.2986	996.883	39.9834
13.30144	992.58	40.0127

Data Header:			0.254_solid_dimension_typei_090_r0			Time:	47.9712	s	4/15/2019 2:21:59 PM
Data Acquisition:	Timed
Station Name:	ft40.cfg
Test File Name:	monotonic_0.2540_typei_solid_090_dimension.tst
Displacement	Force	Running Time
mm	N	s
13.3018	987.182	40.0225
13.3052	1001.51	40.0518
13.3072	990.796	40.0811
13.3099	995.91	40.1104
13.3119	990.4494	40.1396
13.3141	999.172	40.1689
13.3167	995.21	40.1982
13.3187	994.168	40.2275
13.3209	995.1662	40.2568
13.3243	993.978	40.2861
13.32654	997.0332	40.31543
13.3294	990.161	40.3447
13.3313	999.401	40.374
13.3343	990.973	40.40332
13.3367	998.891	40.4326
13.339	987.549	40.4619
13.3404	1000.38	40.4912
13.3432	989.427	40.5205
13.3466	1000.11	40.5498
13.348	992.397	40.5791
13.34976	999.335	40.6084
13.3545	990.745	40.6377
13.3562	995.5351	40.667
13.3581	993.483	40.6963
13.3601	994.421	40.7256
13.3632	993.586	40.7549
13.3659	993.666	40.78418
13.36863	998.557	40.8135
13.3708	990.111	40.8428
13.37291	995.934	40.87207
13.3761	992.138	40.9014
13.3779	1001.02	40.9307
13.3806	988.897	40.96
13.3827	996.366	40.9893
13.38463	991.035	41.0186
13.3876	997.336	41.0479
13.3896	990.814	41.0771
13.3931	994.197	41.1064
13.3955	995.4657	41.1357
13.3981	993.525	41.165
13.4009	994.666	41.1943
13.4022	990.469	41.2236
13.4056	998.064	41.25293
13.4073	990.372	41.2822
13.41001	998.575	41.3115
13.4121	991.676	41.34082
13.41504	997.151	41.3701
13.4165	987.819	41.3994
13.4191	998.916	41.4287
13.4214	991.374	41.458
13.4247	996.866	41.4873
13.42702	991.62	41.5166
13.4298	996.935	41.5459
13.4316	992.6	41.5752
13.4347	991.07	41.6045
13.4375	994.806	41.6338
13.4382	994.272	41.6631
13.4419	995.906	41.6924
13.4442	988.513	41.72168
13.4465	997.656	41.751
13.4503	990.256	41.7803
13.4511	999.032	41.80957
13.4533	988.224	41.8389
13.4562	1001.15	41.8682
13.4585	989.533	41.8975
13.4618	996.371	41.9268
13.4634	987.126	41.9561
13.4657	998.253	41.9854
13.4681	990.521	42.0146
13.4709	995.77	42.0439
13.4726	991.775	42.0732
13.47613	994.087	42.1025
13.4779	993.613	42.1318
13.4812	990.342	42.1611
13.4825	997.962	42.19043
13.4853	991.824	42.2197
13.4889	999.179	42.249
13.4894	989.291	42.27832
13.49289	1000.39	42.3076
13.4954	987.855	42.3369
13.4969	1000.5	42.3662
13.5002	990.903	42.3955
13.5018	1000.67	42.4248
13.5048	987.965	42.4541
13.5073	996.323	42.4834
13.5098	992.176	42.5127
13.511	994.99	42.542
13.514	992.095	42.5713
13.5159	995.028	42.6006
13.5196	996.871	42.6299
13.522	989.809	42.65918
13.5246	995.297	42.6885
13.5276	990.816	42.7178
13.5301	1001.15	42.74707
13.5318	989.989	42.7764
13.5345	996.165	42.8057
13.5355	989.148	42.835
13.5386	997.837	42.8643
13.5407	987.973	42.8936
13.5434	996.394	42.9229
13.5462	992.887	42.9521
13.5498	995.993	42.9814
13.5517	992.236	43.0107
13.5538	991.66	43.04
13.556	994.269	43.0693
13.5582	990.943	43.0986
13.5602	996.073	43.12793
13.5637	991.828	43.1572
13.5667	997.811	43.1865
13.568	988.069	43.21582
13.5705	998.3125	43.2451
13.5739	988.063	43.2744
13.5751	997.793	43.3037
13.5785	989.878	43.333
13.5798	996.684	43.3623
13.5825	988.751	43.3916
13.5856	990.869	43.4209
13.588	990.6311	43.4502
13.5902	994.763	43.4795
13.5931	993.067	43.5088
13.5949	988.921	43.5381
13.5972	994.824	43.5674
13.6007	988.517	43.59668
13.6032	995.836	43.626
13.6049	984.576	43.6553
13.6076	999.367	43.68457
13.6097	988.959	43.7139
13.6126	996.324	43.7432
13.6141	984.419	43.7725
13.6172	997.799	43.8018
13.6191	988.114	43.8311
13.621	995.895	43.8604
13.6247	990.078	43.8896
13.6274	995.563	43.9189
13.6299	991.335	43.9482
13.631	991.235	43.9775
13.6345	995.539	44.0068
13.6374	989.401	44.0361
13.6395	994.736	44.06543
13.641	987.474	44.0947
13.6451	998.169	44.124
13.6469	986.407	44.15332
13.6489	997.88	44.1826
13.6507	987.746	44.2119
13.6538	998.376	44.2412
13.6565	985.268	44.2705
13.6589	995.3324	44.2998
13.6621	987.3822	44.3291
13.66334	995.748	44.3584
13.6669	986.902	44.3877
13.6682	994.326	44.417
13.6714	993.1283	44.4463
13.6734	989.898	44.4756
13.6761	989.0658	44.5049
13.6785	988.477	44.53418
13.6807	995.922	44.5635
13.6832	986.516	44.5928
13.6846	994.466	44.62207
13.6878	987.722	44.6514
13.6916	994.805	44.6807
13.6934	985.815	44.71
13.69617	994.053	44.7393
13.6973	988.477	44.7686
13.6995	994.581	44.7979
13.702	987.651	44.8271
13.7048	992.141	44.8564
13.7078	989.099	44.8857
13.71069	989.416	44.915
13.7133	991.052	44.9443
13.7146	991.445	44.9736
13.7167	993.666	45.00293
13.7195	988.259	45.0322
13.7225	995.113	45.0615
13.7245	988.059	45.09082
13.7279	993.028	45.1201
13.7299	985.515	45.1494
13.7327	994.969	45.1787
13.7338	984.6532	45.208
13.7363	989.4198	45.2373
13.7388	985.89	45.2666
13.74186	993.294	45.2959
13.7439	987.894	45.3252
13.7469	987.247	45.3545
13.74915	988.867	45.3838
13.7509	987.7666	45.4131
13.7534	991.0318	45.4424
13.7564	982.925	45.47168
13.7596	994.352	45.501
13.7609	986.272	45.5303
13.7641	991.902	45.55957
13.7662	980.912	45.5889
13.7683	993.036	45.6182
13.7717	982.011	45.6475
13.7734	991.245	45.6768
13.7757	983.7608	45.7061
13.7784	991.407	45.7354
13.7806	983.62	45.7646
13.7837	988.577	45.7939
13.7861	988.105	45.8232
13.7876	987.438	45.8525
13.7904	988.478	45.8818
13.7938	984.849	45.9111
13.7956	991.9093	45.94043
13.7977	980.3067	45.9697
13.80071	990.298	45.999
13.80276	982.886	46.02832
13.8058	993.191	46.0576
13.80774	979.609	46.0869
13.8102	991.3	46.1162
13.8115	979.744	46.1455
13.8159	989.58	46.1748
13.8186	978.748	46.2041
13.8213	990.4856	46.2334
13.8227	984.148	46.2627
13.8252	986.093	46.292
13.8267	980.711	46.3213
13.8292	984.3327	46.3506
13.8327	984.3114	46.3799
13.8354	980.883	46.40918
13.8363	984.685	46.4385
13.8394	980.057	46.4678
13.8414	986.472	46.49707
13.8452	973.176	46.5264
13.8467	984.081	46.5557
13.8493	975.874	46.585
13.8513	981.638	46.6143
13.8542	971.888	46.6436
13.8558	975.144	46.6729
13.8644	-48.0738	46.7021
13.8647	-33.4176	46.7314
13.8657	-46.86245	46.7607
13.8681	-41.189	46.79
13.8698	-41.5417	46.8193
13.873	-44.1255	46.8486
13.8746	-40.0104	46.87793
13.8763	-45.3073	46.9072
13.8783	-40.617	46.9365
13.8814	-46.8094	46.96582
13.8843	-36.0924	46.9951
13.8862	-46.31469	47.0244
13.8896	-40.1787	47.0537
13.8908	-49.6351	47.083
13.8938	-36.7975	47.1123
13.8964	-46.3986	47.1416
13.8992	-42.7064	47.1709
13.9006	-42.3792	47.2002
13.9037	-42.3441	47.2295
13.9058	-44.62141	47.2588
13.9092	-45.5065	47.2881
13.9109	-38.4592	47.3174
13.9139	-44.9605	47.34668
13.9158	-38.1049	47.376
13.91761	-48.1427	47.4053
13.9215	-36.7875	47.43457
13.9231	-48.3029	47.4639
13.9255	-36.6146	47.4932
13.9269	-47.3532	47.5225
13.9301	-36.0146	47.5518
13.9324	-47.84956	47.5811
13.934	-39.4687	47.6104
13.9376	-45.0456	47.6396
13.9405	-41.9462	47.6689
13.9438	-41.7165	47.6982
13.944	-42.8862	47.7275
13.9473	-38.966	47.7568
13.9497	-46.5972	47.7861
13.9523	-39.1992	47.81543
13.9551	-46.6755	47.8447
13.9571	-35.651	47.874
13.9601	-50.5397	47.90332
13.9614	-36.5322	47.9326
13.9639	-47.0085	47.9619