File: data/processed_data_files/tensile/0.254_solid_dimension_typeiv_090_r(7).dat
MTS793|BTW|ENU|1|2|.|/|:|1|0|0|A

Data Header:			0.254_solid_dimension_typeiv_090_r0			Time:	20.0225	s	4/14/2019 1:53:41 AM
Data Acquisition:	Timed
Station Name:	ft40.cfg
Test File Name:	monotonic_0.2540_typeiv_solid_090_dimension.tst
Displacement	Force	Running Time
mm	N	s
-40.0416	-121.583	0.02734375
-40.0393	-122.771	0.0957031
-40.0338	-119.535	0.1640625
-40.02721	-114.055	0.232422
-40.021	-114.272	0.300781
-40.0166	-111.888	0.369141
-40.0104	-107.282	0.4375
-40.0046	-103.137	0.505859
-39.9992	-95.8556	0.574219
-39.994	-91.1807	0.642578
-39.9874	-86.6414	0.7109375
-39.9819	-84.6085	0.779297
-39.9767	-80.0774	0.847656
-39.9712	-75.55825	0.916016
-39.9647	-75.4461	0.984375
-39.9596	-73.1466	1.05273
-39.9545	-69.961	1.12109
-39.9479	-69.3785	1.18945
-39.9418	-60.4506	1.25781
-39.9363	-55.4824	1.32617
-39.9301	-50.3624	1.39453
-39.9242	-50.0168	1.46289
-39.9188	-43.5003	1.53125
-39.9135	-39.14579	1.59961
-39.9087	-38.2606	1.66797
-39.9026	-34.7255	1.73633
-39.8956	-33.1915	1.80469
-39.8902	-31.0516	1.87305
-39.8849	-24.5131	1.94141
-39.879	-18.2076	2.00977
-39.8735	-16.5998	2.078125
-39.868	-14.674	2.14648
-39.86272	-7.47987	2.21484
-39.8559	-0.2540032	2.2832
-39.8506	-2.447278	2.35156
-39.8452	-1.1127	2.41992
-39.8389	4.36597	2.48828
-39.83445	1.00337	2.55664
-39.8283	6.97626	2.625
-39.8229	14.1557	2.69336
-39.817	17.7492	2.76172
-39.81144	19.9102	2.83008
-39.8051	26.1011	2.89844
-39.799	33.8156	2.9668
-39.79451	34.4328	3.03516
-39.788	34.9791	3.10352
-39.7826	40.8672	3.171875
-39.7767	39.7759	3.24023
-39.7709	44.7408	3.30859
-39.76651	49.0171	3.37695
-39.759	52.9603	3.44531
-39.7545	54.8378	3.51367
-39.7486	63.2956	3.58203
-39.7422	70.6388	3.65039
-39.7365	69.0194	3.71875
-39.7317	73.7207	3.78711
-39.7249	76.7136	3.85547
-39.7209	78.7054	3.92383
-39.71463	79.3664	3.99219
-39.7091	84.6329	4.06055
-39.703	86.6578	4.12891
-39.6981	88.869	4.19727
-39.6916	96.6154	4.265625
-39.68618	103.653	4.33398
-39.6803	104.898	4.40234
-39.6749	108.789	4.4707
-39.6684	112.8614	4.53906
-39.6639	114.742	4.60742
-39.6571	115.865	4.67578
-39.6516	120.575	4.74414
-39.64613	122.883	4.8125
-39.6393	125.221	4.88086
-39.6347	129.666	4.94922
-39.629	137.23	5.01758
-39.6244	140.613	5.08594
-39.6178	144.872	5.1543
-39.6128	148.624	5.22266
-39.60688	149.631	5.29102
-39.6009	152.408	5.359375
-39.5947	155.099	5.42773
-39.58905	156.541	5.49609
-39.5839	158.241	5.56445
-39.5782	164.329	5.63281
-39.57198	169.7921	5.70117
-39.5667	173.764	5.76953
-39.5604	178.626	5.83789
-39.5541	182.641	5.90625
-39.5484	184.995	5.97461
-39.5438	187.994	6.04297
-39.5388	189.856	6.11133
-39.5322	190.291	6.17969
-39.5269	192.303	6.24805
-39.5214	197.433	6.31641
-39.5152	202.569	6.38477
-39.5095	206.649	6.453125
-39.5034	211.399	6.52148
-39.4979	216.2	6.58984
-39.4929	217.94	6.6582
-39.4875	222.027	6.72656
-39.4816	225.2459	6.79492
-39.4753	224.081	6.86328
-39.4702	225.284	6.93164
-39.4641	231.06	7
-39.458	234.62	7.06836
-39.4522	238.736	7.13672
-39.4466	244.469	7.20508
-39.4414	250.105	7.27344
-39.43573	253.998	7.3418
-39.4299	258.222	7.41016
-39.424	260.293	7.47852
-39.4185	257.453	7.546875
-39.4128	257.667	7.61523
-39.4065	266.203	7.68359
-39.4006	264.417	7.75195
-39.3951	269.705	7.82031
-39.3905	276.872	7.88867
-39.3844	279.142	7.95703
-39.378	284.98	8.02539
-39.3728	289.7413	8.09375
-39.3677	293.071	8.16211
-39.3616	291.031	8.23047
-39.3553	292.375	8.29883
-39.3498	298.115	8.36719
-39.3447	296.437	8.43555
-39.3393	299.428	8.50391
-39.3333	306.877	8.57227
-39.3285	310.205	8.640625
-39.3218	315.175	8.70898
-39.3158	323.316	8.77734
-39.3103	323.302	8.8457
-39.3047	322.703	8.91406
-39.2997	325.022	8.98242
-39.2934	329.557	9.05078
-39.2862	327.879	9.11914
-39.2821	330.633	9.1875
-39.275	336.368	9.25586
-39.2703	339.434	9.32422
-39.2644	345.648	9.39258
-39.2584	352.15	9.46094
-39.2534	354.4617	9.5293
-39.2478	353.417	9.59766
-39.2414	355.674	9.66602
-39.2352	358.204	9.734375
-39.2309	358.331	9.80273
-39.2253	358.35	9.87109
-39.2202	363.623	9.93945
-39.2129	367.098	10.0078
-39.2086	373.343	10.0762
-39.2027	376.824	10.1445
-39.197	382.1344	10.2129
-39.19	383.165	10.28125
-39.18454	384.2706	10.3496
-39.1784	389.394	10.418
-39.1735	388.897	10.4863
-39.1678	388.416	10.5547
-39.1623	390.622	10.623
-39.157	392.381	10.6914
-39.1495	398.981	10.7598
-39.1452	402.384	10.8281
-39.139	406.715	10.8965
-39.1333	408.585	10.9648
-39.1278	412.872	11.0332
-39.1221	416.592	11.1016
-39.1157	414.951	11.1699
-39.111	414.022	11.2383
-39.1057	415.066	11.3066
-39.101	417.1839	11.375
-39.0934	422.689	11.4434
-39.0875	425.912	11.5117
-39.0821	429.123	11.5801
-39.0764	431.989	11.6484
-39.0717	435.192	11.7168
-39.0643	438.358	11.7852
-39.06	436.99	11.8535
-39.053	438.165	11.9219
-39.0478	437.7847	11.9902
-39.0425	438.315	12.0586
-39.0363	442.04	12.127
-39.0317	445.807	12.1953
-39.0251	446.447	12.2637
-39.0198	450.139	12.332
-39.0141	454.131	12.4004
-39.0083	456.132	12.46875
-39.0027	456.147	12.5371
-38.9975	456.044	12.6055
-38.9917	455.156	12.6738
-38.9851	453.756	12.7422
-38.9798	458.552	12.8105
-38.9744	458.3428	12.8789
-38.9689	458.424	12.9473
-38.9616	459.512	13.0156
-38.9563	467.65	13.084
-38.9512	467.667	13.1523
-38.9456	466.824	13.2207
-38.9398	467.896	13.2891
-38.9339	466.037	13.3574
-38.9291	464.666	13.4258
-38.9228	465.273	13.4941
-38.91753	464.739	13.5625
-38.9125	463.174	13.6309
-38.9073	465.265	13.6992
-38.8994	470.544	13.7676
-38.8946	470.028	13.8359
-38.8883	470.95	13.9043
-38.88295	471.043	13.9727
-38.87727	469.787	14.041
-38.8724	467.213	14.1094
-38.86639	467.434	14.1777
-38.8602	466.926	14.2461
-38.8551	462.369	14.3145
-38.8488	463.653	14.3828
-38.8435	468.216	14.4512
-38.838	468.068	14.5195
-38.8316	469.8208	14.5879
-38.8258	470.974	14.65625
-38.8203	468.748	14.7246
-38.8152	466.471	14.793
-38.8083	466.7326	14.8613
-38.804	463.18	14.9297
-38.7972	458.421	14.998
-38.7917	459.503	15.0664
-38.7862	464.972	15.1348
-38.7811	462.121	15.2031
-38.7753	462.853	15.2715
-38.7695	466.078	15.3398
-38.7637	464.073	15.4082
-38.7573	463.144	15.4766
-38.7518	461.736	15.5449
-38.746	458.971	15.6133
-38.7407	452.429	15.6816
-38.7343	451.235	15.75
-38.7292	457.073	15.8184
-38.7235	456.05	15.8867
-38.7175	455.734	15.9551
-38.7123	459.911	16.0234
-38.70647	459.729	16.0918
-38.6996	458.872	16.1602
-38.6947	459.4447	16.2285
-38.6895	454.952	16.2969
-38.6838	448.66	16.3652
-38.6786	450.498	16.4336
-38.6718	450.893	16.502
-38.6661	450.536	16.5703
-38.6605	451.784	16.6387
-38.6557	454.327	16.707
-38.6492	455.159	16.7754
-38.644	455.612	16.84375
-38.6369	455.437	16.9121
-38.6316	452.608	16.9805
-38.6249	448.743	17.0488
-38.6208	447.685	17.1172
-38.6155	448.676	17.1855
-38.6094	446.144	17.2539
-38.604	448.754	17.3223
-38.5995	451.2334	17.3906
-38.5929	450.621	17.459
-38.5871	453.24	17.5273
-38.5812	453.402	17.5957
-38.5752	450.821	17.6641
-38.5696	446.272	17.7324
-38.5641	446.979	17.8008
-38.5587	446.344	17.8691
-38.5532	444.632	17.9375
-38.548	446.052	18.0059
-38.5405	444.587	18.0742
-38.5348	448.567	18.1426
-38.5305	452.46	18.2109
-38.52409	451.946	18.2793
-38.51897	448.702	18.3477
-38.51305	447.492	18.416
-38.507	447.793	18.4844
-38.5021	444.4155	18.5527
-38.49538	444.378	18.6211
-38.4892	445.132	18.6895
-38.4833	444.072	18.7578
-38.4786	447.117	18.8262
-38.4734	450.909	18.8945
-38.4671	451.356	18.9629
-38.4619	448.072	19.03125
-38.4569	451.006	19.0996
-38.45	450.919	19.168
-38.4445	446.093	19.2363
-38.4393	442.353	19.3047
-38.4337	444.86	19.373
-38.4268	441.22	19.4414
-38.4218	446.484	19.5098
-38.41552	447.393	19.5781
-38.4103	448.79	19.6465
-38.4045	446.3624	19.7148
-38.39901	447.614	19.7832
-38.393	450.133	19.8516
-38.3867	446.038	19.9199
-38.3812	443.471	19.9883
-38.3794	447.478	20.0176

Data Header:			0.254_solid_dimension_typeiv_090_r0			Time:	35.04248	s	4/14/2019 1:53:56 AM
Data Acquisition:	Timed
Station Name:	ft40.cfg
Test File Name:	monotonic_0.2540_typeiv_solid_090_dimension.tst
Displacement	Force	Running Time
mm	N	s
-38.3788	448.854	20.0273
-38.374	449.14	20.0859
-38.3697	447.453	20.1445
-38.3639	444.466	20.2031
-38.3583	443.901	20.2617
-38.3542	441.785	20.3203
-38.34956	443.984	20.3789
-38.34375	440.3642	20.4375
-38.3406	442.68	20.4961
-38.3352	442.128	20.5547
-38.3302	444.525	20.6133
-38.325	445.107	20.6719
-38.3196	444.851	20.7305
-38.3155	447.382	20.7891
-38.3107	446.613	20.8477
-38.3062	447.618	20.90625
-38.3002	447.177	20.9648
-38.2952	447.753	21.0234
-38.2898	443.981	21.082
-38.286	446.107	21.1406
-38.2808	442.4884	21.1992
-38.2766	440.932	21.2578
-38.2708	438.226	21.3164
-38.2669	440.231	21.375
-38.26207	440.449	21.4336
-38.2575	440.6351	21.4922
-38.252	443.884	21.5508
-38.24678	443.919	21.6094
-38.2424	446.902	21.668
-38.2374	447.886	21.7266
-38.2314	447.369	21.7852
-38.2281	449.081	21.84375
-38.2222	447.9841	21.9023
-38.2173	446.759	21.9609
-38.2128	445.151	22.0195
-38.2081	446.11	22.0781
-38.2029	442.498	22.1367
-38.199	442.0437	22.1953
-38.194	440.082	22.2539
-38.1876	440.888	22.3125
-38.1828	438.928	22.3711
-38.178	443.497	22.4297
-38.1739	441.36	22.4883
-38.1695	443.5123	22.5469
-38.1632	444.0737	22.6055
-38.1588	445.475	22.6641
-38.1535	445.495	22.7227
-38.1498	445.402	22.78125
-38.1444	446.789	22.8398
-38.1386	443.348	22.8984
-38.1337	445.52	22.957
-38.13018	443.283	23.0156
-38.1251	441.34	23.0742
-38.1188	439.098	23.1328
-38.114	440.282	23.1914
-38.1102	439.1131	23.25
-38.1054	439.269	23.3086
-38.09972	441.703	23.3672
-38.09428	441.258	23.4258
-38.0898	444.195	23.4844
-38.0848	445.987	23.543
-38.0804	448.4	23.6016
-38.0755	444.935	23.6602
-38.0712	448.765	23.71875
-38.0664	447.373	23.7773
-38.0606	446.209	23.8359
-38.0569	446.739	23.8945
-38.051	442.8605	23.9531
-38.0466	441.688	24.0117
-38.0421	441.116	24.0703
-38.0374	441.763	24.1289
-38.0317	437.995	24.1875
-38.0268	440.682	24.2461
-38.0218	438.623	24.3047
-38.0165	441.043	24.3633
-38.0124	442.156	24.4219
-38.0076	445.075	24.4805
-38.0029	443.485	24.5391
-37.9964	445.216	24.5977
-37.993	447.466	24.65625
-37.9877	444.156	24.7148
-37.9834	444.9993	24.7734
-37.978	441.802	24.832
-37.9725	442.959	24.8906
-37.9682	438.993	24.9492
-37.9628	440.331	25.0078
-37.9585	438.232	25.0664
-37.953	437.143	25.125
-37.9485	439.578	25.1836
-37.9442	437.875	25.2422
-37.9395	441.543	25.3008
-37.935	441.018	25.3594
-37.9289	446.07	25.418
-37.9244	444.063	25.4766
-37.9204	448.481	25.5352
-37.9144	447.691	25.59375
-37.90897	445.715	25.6523
-37.9051	446.14	25.7109
-37.8995	445.299	25.7695
-37.895	443.212	25.8281
-37.8903	440.871	25.8867
-37.8855	440.281	25.9453
-37.88113	436.194	26.0039
-37.8762	440.701	26.0625
-37.8709	438.37	26.1211
-37.8658	439.9816	26.1797
-37.8608	438.67	26.2383
-37.8561	442.913	26.2969
-37.8513	442.337	26.3555
-37.84655	442.552	26.4141
-37.8418	444.675	26.4727
-37.8364	443.1489	26.53125
-37.8314	444.682	26.5898
-37.8269	441.438	26.6484
-37.82214	443.395	26.707
-37.8177	439.481	26.7656
-37.8126	439.985	26.8242
-37.8068	435.558	26.8828
-37.8019	435.8551	26.9414
-37.7985	435.346	27
-37.7914	435.62	27.0586
-37.7869	437.344	27.1172
-37.783	437.435	27.1758
-37.7777	441.279	27.2344
-37.7719	439.834	27.293
-37.7679	444.966	27.3516
-37.76265	445.18	27.4102
-37.7577	445.3548	27.46875
-37.7533	445.549	27.5273
-37.749	446.593	27.5859
-37.7443	443.746	27.6445
-37.7392	440.439	27.7031
-37.7345	442.059	27.7617
-37.7286	438.854	27.8203
-37.7232	439.334	27.8789
-37.7189	436.582	27.9375
-37.7144	438.383	27.9961
-37.7093	437.109	28.0547
-37.7044	440.208	28.1133
-37.6996	440.4346	28.1719
-37.6953	441.112	28.2305
-37.6899	443.9	28.2891
-37.6842	442.233	28.3477
-37.6805	442.7099	28.40625
-37.676	439.83	28.4648
-37.6707	442.325	28.5234
-37.6665	436.8382	28.582
-37.6613	439.475	28.6406
-37.6571	435.573	28.6992
-37.6523	434.7215	28.7578
-37.6465	433.056	28.8164
-37.6421	433.556	28.875
-37.6365	432.293	28.9336
-37.6313	433.904	28.9922
-37.6265	436.47	29.0508
-37.6215	436.374	29.1094
-37.6163	441.052	29.168
-37.6123	441.979	29.2266
-37.60717	441.254	29.2852
-37.6012	442.142	29.34375
-37.5986	443.024	29.4023
-37.5918	442.249	29.4609
-37.5881	440.342	29.5195
-37.5826	439.587	29.5781
-37.5765	435.124	29.6367
-37.5742	436.851	29.6953
-37.5672	433.9758	29.7539
-37.5637	435.246	29.8125
-37.5585	432.048	29.8711
-37.5541	435.96	29.9297
-37.54821	433.166	29.9883
-37.54343	434.67	30.0469
-37.5382	437.234	30.1055
-37.5338	438.859	30.1641
-37.529	437.233	30.2227
-37.5233	437.756	30.28125
-37.5192	436.9198	30.3398
-37.5146	433.274	30.3984
-37.5099	435.568	30.457
-37.5054	430.7753	30.5156
-37.4988	429.699	30.5742
-37.4949	427.118	30.6328
-37.4891	424.737	30.6914
-37.4856	417.943	30.75
-37.4776	-43.5231	30.8086
-37.47604	-47.92062	30.8672
-37.4691	-45.6165	30.9258
-37.4654	-42.6697	30.9844
-37.4597	-43.51881	31.043
-37.4557	-39.8829	31.1016
-37.4495	-38.8666	31.1602
-37.445	-36.4656	31.21875
-37.4408	-40.0006	31.2773
-37.4354	-38.7425	31.3359
-37.4313	-40.6476	31.3945
-37.4261	-43.5495	31.4531
-37.421	-42.99136	31.5117
-37.4169	-45.2817	31.5703
-37.4116	-45.884	31.6289
-37.4063	-46.4022	31.6875
-37.4012	-44.5946	31.7461
-37.3969	-46.03841	31.8047
-37.39204	-42.2748	31.8633
-37.3866	-44.0385	31.9219
-37.3826	-40.2536	31.9805
-37.3767	-41.5494	32.0391
-37.3729	-39.3554	32.0977
-37.3672	-39.714	32.15625
-37.3632	-41.5087	32.2148
-37.3576	-40.2966	32.2734
-37.35228	-42.85754	32.332
-37.3472	-43.1377	32.3906
-37.34343	-48.2632	32.4492
-37.3391	-45.0261	32.5078
-37.3328	-49.5175	32.5664
-37.3286	-48.627	32.625
-37.3246	-48.3121	32.6836
-37.3187	-48.2835	32.7422
-37.3131	-46.51091	32.8008
-37.309	-44.48259	32.8594
-37.3041	-43.2686	32.918
-37.2993	-41.3179	32.9766
-37.2942	-38.2225	33.0352
-37.2886	-39.00127	33.09375
-37.2852	-40.0176	33.1523
-37.2798	-40.4852	33.2109
-37.2758	-42.0583	33.2695
-37.2701	-43.70224	33.3281
-37.2645	-44.8199	33.3867
-37.2599	-45.0439	33.4453
-37.2558	-49.107	33.5039
-37.2508	-44.1144	33.5625
-37.2448	-49.49	33.6211
-37.2411	-44.99139	33.6797
-37.2351	-46.4434	33.7383
-37.2309	-41.9174	33.7969
-37.2258	-43.2718	33.8555
-37.2206	-39.7112	33.9141
-37.21608	-38.9911	33.9727
-37.211	-41.58596	34.03125
-37.2063	-40.961	34.0898
-37.2011	-41.6662	34.1484
-37.1967	-42.4055	34.207
-37.1926	-44.5878	34.2656
-37.18605	-41.692	34.3242
-37.1819	-49.906	34.3828
-37.1756	-47.2213	34.4414
-37.1724	-49.6542	34.5
-37.1681	-47.4881	34.5586
-37.163	-48.3066	34.6172
-37.1571	-45.4155	34.6758
-37.1527	-44.5904	34.7344
-37.1488	-43.226	34.793
-37.1427	-38.3373	34.8516
-37.1386	-40.36	34.9102
-37.133	-38.5406	34.96875
-37.1281	-39.3035	35.0273
-37.1269	-40.8356	35.0371