File: data/processed_data_files/tensile/0.254_hd_uprint_typei_4545_r(5).dat
MTS793|BTW|ENU|1|2|.|/|:|1|0|0|A

Data Header:			0.254_hd_uprint_typei_4545_r0			Time:	20.0254	s	4/15/2019 4:15:39 PM
Data Acquisition:	Timed
Station Name:	ft40.cfg
Test File Name:	monotonic_0.2540_typei_hd_4545_uprint.tst
Displacement	Force	Running Time
mm	N	s
9.98003	-162.45	0.0302734
9.98125	-160.89	0.0986328
9.98703	-162.557	0.166992
9.99203	-163.019	0.235352
9.99785	-161.503	0.303711
10.0037	-164.169	0.37207
10.00981	-164.355	0.44043
10.0138	-161.498	0.508789
10.0196	-157.66	0.577148
10.0272	-154.231	0.645508
10.03264	-148.296	0.713867
10.037	-148.009	0.782227
10.0442	-148.745	0.850586
10.049	-146.414	0.918945
10.0558	-146.771	0.987305
10.0609	-148.792	1.05566
10.0667	-149.5594	1.12402
10.07324	-147.195	1.19238
10.07719	-145.9025	1.26074
10.0838	-140.384	1.3291
10.088	-133.07	1.39746
10.0949	-132.47	1.46582
10.1001	-131.3463	1.53418
10.1053	-130.374	1.60254
10.1121	-126.9432	1.6709
10.11773	-131.75	1.73926
10.1233	-129.426	1.80762
10.1285	-128.096	1.87598
10.1342	-130.316	1.94434
10.1394	-123.976	2.0127
10.1456	-116.852	2.08105
10.1516	-114.181	2.14941
10.1578	-114.844	2.21777
10.1636	-110.843	2.28613
10.1673	-106.4156	2.35449
10.1754	-109.231	2.42285
10.1804	-109.875	2.49121
10.18621	-107.7303	2.55957
10.1925	-109.26	2.62793
10.1974	-104.462	2.69629
10.2035	-98.4216	2.76465
10.2084	-95.7625	2.83301
10.2146	-94.1585	2.90137
10.21996	-87.7589	2.96973
10.2251	-82.8064	3.03809
10.2318	-84.701	3.10645
10.2366	-84.7889	3.1748
10.244	-83.5888	3.24316
10.2486	-84.5264	3.31152
10.2541	-82.0389	3.37988
10.2601	-77.07708	3.44824
10.265	-72.3201	3.5166
10.2713	-72.2499	3.58496
10.27672	-64.9076	3.65332
10.2831	-60.1187	3.72168
10.2889	-60.216	3.79004
10.2938	-60.1794	3.8584
10.3001	-58.5659	3.92676
10.3063	-56.9197	3.99512
10.3114	-56.4858	4.06348
10.3164	-53.7848	4.13184
10.3232	-52.1006	4.2002
10.3285	-47.6909	4.26855
10.3349	-40.1611	4.33691
10.3407	-36.1072	4.40527
10.3455	-34.32122	4.47363
10.35137	-33.1328	4.54199
10.357	-32.5332	4.61035
10.3634	-31.3268	4.67871
10.3698	-29.249	4.74707
10.3735	-29.3462	4.81543
10.38041	-27.8447	4.88379
10.3858	-24.3681	4.95215
10.3905	-15.0261	5.02051
10.3972	-12.67288	5.08887
10.40334	-8.52851	5.15723
10.4085	-5.40043	5.22559
10.4137	-5.47435	5.29395
10.4187	-3.17684	5.3623
10.4249	-1.24486	5.43066
10.4305	-1.83656	5.49902
10.436	-3.84062	5.56738
10.4422	3.67415	5.63574
10.449	10.4338	5.7041
10.4531	14.0787	5.77246
10.4592	19.5582	5.84082
10.4659	25.0129	5.90918
10.4707	24.0572	5.97754
10.4776	25.4312	6.0459
10.4814	28.5413	6.11426
10.4875	27.6782	6.18262
10.49439	25.6574	6.25098
10.4988	29.3544	6.31934
10.5045	38.5559	6.3877
10.511	39.4797	6.45605
10.5163	44.3776	6.52441
10.5224	52.0225	6.59277
10.5286	54.74456	6.66113
10.5327	56.2544	6.72949
10.5384	60.2411	6.79785
10.5459	58.5855	6.86621
10.5504	54.024	6.93457
10.5561	58.0879	7.00293
10.5622	65.5228	7.07129
10.568	67.2153	7.13965
10.5736	72.0813	7.20801
10.5792	79.7804	7.27637
10.5842	81.7622	7.34473
10.59	86.7133	7.41309
10.5964	87.9538	7.48145
10.601	88.8659	7.5498
10.6072	84.9451	7.61816
10.6148	87.9884	7.68652
10.6195	92.7753	7.75488
10.6244	95.762	7.82324
10.63078	99.9677	7.8916
10.63636	108.391	7.95996
10.6419	109.954	8.02832
10.6472	116.365	8.09668
10.6528	121.334	8.16504
10.6585	117.971	8.2334
10.6651	115.338	8.30176
10.66988	117.068	8.37012
10.67625	121.735	8.43848
10.682	124.06	8.50684
10.6882	128.395	8.5752
10.69429	132.664	8.64355
10.6982	137.713	8.71191
10.7044	145.051	8.78027
10.7101	147.2562	8.84863
10.7166	147.596	8.91699
10.7221	147.902	8.98535
10.7275	149.999	9.05371
10.7316	150.757	9.12207
10.73785	151.902	9.19043
10.7444	157.507	9.25879
10.7511	160.469	9.32715
10.755	165.315	9.39551
10.7611	174.73	9.46387
10.7665	178.554	9.53223
10.773	177.476	9.60059
10.7791	177.811	9.66895
10.7831	180.437	9.7373
10.7899	181.24	9.80566
10.79542	179.618	9.87402
10.8011	183.56	9.94238
10.80591	190.277	10.0107
10.81321	192.92	10.0791
10.8177	200.971	10.1475
10.8232	206.53	10.21582
10.8297	206.449	10.28418
10.8352	208.144	10.3525
10.8412	212.815	10.4209
10.84713	212.725	10.4893
10.8525	211.654	10.5576
10.8574	214.197	10.626
10.8644	217.3512	10.6943
10.8699	222.004	10.7627
10.8751	226.651	10.8311
10.8807	235.512	10.8994
10.8879	237.415	10.9678
10.8931	237.849	11.0361
10.8976	242.662	11.1045
10.90309	242.476	11.1729
10.9095	242.257	11.2412
10.9153	244.449	11.30957
10.9211	245.739	11.37793
10.9268	250.0414	11.4463
10.9318	254.398	11.5146
10.9375	262.303	11.583
10.944	265.631	11.6514
10.94947	267.011	11.7197
10.95495	275.302	11.7881
10.9601	275.525	11.8564
10.9659	273.423	11.9248
10.9728	273.493	11.9932
10.9765	274.55	12.0615
10.9821	277.938	12.1299
10.9887	282.346	12.1982
10.995	288.751	12.2666
10.9997	291.638	12.335
11.0053	296.927	12.40332
11.0131	302.6026	12.47168
11.0175	303.937	12.54
11.0228	304.447	12.6084
11.0293	304.29	12.6768
11.0352	302.437	12.7451
11.0402	306.5708	12.8135
11.0467	309.11	12.8818
11.0512	314.448	12.9502
11.0563	318.7196	13.0186
11.0636	323.776	13.0869
11.0694	333.974	13.1553
11.0749	333.104	13.2236
11.08039	335.135	13.292
11.0867	334.438	13.3604
11.0918	333.71	13.4287
11.0978	336.979	13.49707
11.1029	339.401	13.56543
11.1078	342.235	13.6338
11.1156	343.486	13.7021
11.1214	350.772	13.7705
11.1254	359.348	13.8389
11.1312	359.152	13.9072
11.136	363.955	13.9756
11.1434	366.748	14.0439
11.14899	366.265	14.1123
11.1543	366.932	14.1807
11.15983	367.312	14.249
11.16648	369.007	14.3174
11.1712	369.8692	14.3857
11.1774	378.713	14.4541
11.1832	386.566	14.5225
11.1881	387.397	14.59082
11.1939	391.339	14.65918
11.1997	397.001	14.7275
11.2057	394.51	14.7959
11.21041	394.633	14.8643
11.21817	398.257	14.9326
11.222	397.276	15.001
11.2276	395.874	15.0693
11.2334	401.02	15.1377
11.2407	410.313	15.2061
11.2463	414.503	15.2744
11.25075	418.441	15.3428
11.2563	424.409	15.4111
11.2629	424.985	15.4795
11.2682	423.957	15.5479
11.2748	424.42	15.6162
11.2792	424.826	15.68457
11.2845	423.991	15.75293
11.2914	427.756	15.8213
11.2967	437.919	15.8896
11.3033	440.25	15.958
11.3079	444.845	16.0264
11.3127	451.568	16.0947
11.31929	451.674	16.1631
11.3236	454.8176	16.2314
11.3313	453.175	16.2998
11.3369	452.161	16.3682
11.3428	452.6	16.4365
11.3483	455.311	16.5049
11.3539	462.116	16.5732
11.3597	463.988	16.6416
11.3658	471.288	16.71
11.3704	475.42	16.77832
11.3757	479.319	16.84668
11.3821	481.833	16.915
11.38785	482.986	16.9834
11.3936	480.841	17.0518
11.3988	479.2269	17.1201
11.4044	482.291	17.1885
11.41	486.427	17.2568
11.4167	490.211	17.3252
11.42252	495.117	17.3936
11.4273	502.269	17.4619
11.433	505.5126	17.5303
11.439	510.777	17.5986
11.4448	511.245	17.667
11.4513	508.209	17.7354
11.4572	507.949	17.8037
11.4616	511.081	17.87207
11.4672	512.9953	17.94043
11.4739	513.477	18.0088
11.4788	520.753	18.0771
11.4846	524.433	18.1455
11.4897	529.219	18.2139
11.4964	534.889	18.2822
11.5012	540.45	18.3506
11.5072	536.673	18.4189
11.5131	534.467	18.4873
11.5178	538.331	18.5557
11.5247	536.553	18.624
11.5303	538.407	18.6924
11.5362	543.188	18.7607
11.5422	549	18.8291
11.5472	553.803	18.8975
11.5532	558.488	18.96582
11.5573	564.5686	19.03418
11.5641	562.609	19.1025
11.5703	562.02	19.1709
11.5753	565.618	19.2393
11.5807	563.649	19.3076
11.5869	562.107	19.376
11.5936	567.492	19.4443
11.5994	571.74	19.5127
11.6043	577.259	19.5811
11.6093	582.47	19.6494
11.6153	588.433	19.7178
11.6216	587.171	19.7861
11.6288	587.4	19.8545
11.6324	590.291	19.9229
11.6383	589.154	19.9912
11.6397	588.853	20.0205

Data Header:			0.254_hd_uprint_typei_4545_r0			Time:	40.0256	s	4/15/2019 4:15:59 PM
Data Acquisition:	Timed
Station Name:	ft40.cfg
Test File Name:	monotonic_0.2540_typei_hd_4545_uprint.tst
Displacement	Force	Running Time
mm	N	s
11.6415	596.392	20.0303
11.64696	602.182	20.0986
11.6533	603.115	20.167
11.6588	600.23	20.2354
11.6638	597.157	20.3037
11.6704	600.727	20.37207
11.6756	602.5238	20.44043
11.6823	602.133	20.5088
11.6877	609.989	20.5771
11.6932	616.034	20.6455
11.6978	617.607	20.7139
11.7042	624.612	20.7822
11.71018	629.351	20.8506
11.7159	627.539	20.9189
11.7216	621.138	20.9873
11.727	625.257	21.0557
11.7332	628.071	21.124
11.7382	626.398	21.1924
11.7443	629.882	21.2607
11.7504	637.197	21.3291
11.7558	642.065	21.3975
11.762	647.257	21.46582
11.76722	652.058	21.53418
11.7734	650.151	21.6025
11.7789	649.093	21.6709
11.7837	650.277	21.7393
11.79	651.496	21.8076
11.7963	649.671	21.876
11.8017	651.995	21.9443
11.8068	658.9	22.0127
11.8121	661.512	22.0811
11.8183	667.7428	22.1494
11.8246	671.966	22.2178
11.8297	672.753	22.2861
11.8346	673.582	22.3545
11.8413	674.323	22.4229
11.8463	674.413	22.4912
11.8523	673.402	22.55957
11.8584	674.568	22.62793
11.8637	678.039	22.6963
11.8698	683.269	22.7646
11.8746	688.543	22.833
11.8808	692.389	22.9014
11.8865	693.246	22.9697
11.8928	695.882	23.0381
11.897	698.881	23.1064
11.9037	696.139	23.1748
11.9086	695.448	23.2432
11.9145	697.257	23.3115
11.9209	696.961	23.3799
11.92588	700.799	23.4482
11.9322	707.883	23.5166
11.9377	712.151	23.585
11.9432	712.442	23.65332
11.9505	717.844	23.72168
11.955	721.569	23.79
11.96	717.856	23.8584
11.9666	716.946	23.9268
11.9717	716.689	23.9951
11.978	716.328	24.0635
11.9836	719.6889	24.1318
11.9884	725.6474	24.2002
11.9946	730.654	24.2686
12.0001	731.853	24.3369
12.0066	735.911	24.4053
12.0117	741.8114	24.4736
12.018	740.255	24.542
12.0236	739.874	24.6104
12.0297	739.82	24.6787
12.0346	737.419	24.74707
12.0397	739.953	24.81543
12.0462	743.138	24.8838
12.0514	747.041	24.9521
12.0566	749.066	25.0205
12.0631	753.842	25.0889
12.0683	760.383	25.1572
12.07507	758.351	25.2256
12.0812	758.1	25.2939
12.0858	758.201	25.3623
12.0916	756.62	25.4307
12.0965	757.199	25.499
12.1031	760.979	25.5674
12.1082	763.144	25.6357
12.1144	762.725	25.7041
12.11961	769.545	25.7725
12.1259	776.922	25.84082
12.1312	778.0011	25.90918
12.1374	777.3551	25.9775
12.1433	777.828	26.0459
12.1484	775.8678	26.1143
12.1539	776.421	26.1826
12.1604	775.202	26.251
12.1663	776.792	26.3193
12.17089	779.394	26.3877
12.1767	785.478	26.4561
12.1836	791.758	26.5244
12.1889	795.0329	26.5928
12.1944	796.481	26.6611
12.1997	796.667	26.7295
12.2058	794.015	26.7979
12.2113	795.2334	26.8662
12.2162	794.108	26.93457
12.2226	791.94	27.00293
12.2283	792.688	27.0713
12.2343	800.152	27.1396
12.2396	802.756	27.208
12.24453	805.578	27.2764
12.2522	811.258	27.3447
12.2561	812.435	27.4131
12.2621	809.197	27.4814
12.26775	810.71	27.5498
12.2735	809.589	27.6182
12.2785	805.415	27.6865
12.2859	806.097	27.7549
12.2911	812.163	27.8232
12.2978	816.057	27.8916
12.3024	818.792	27.96
12.3087	823.972	28.02832
12.3137	825.736	28.09668
12.3196	823.377	28.165
12.3255	825.793	28.2334
12.3311	825.732	28.3018
12.336	821.154	28.3701
12.3414	819.972	28.4385
12.348	824.846	28.5068
12.3541	826.603	28.5752
12.3598	827.99	28.6436
12.3649	835.939	28.7119
12.3709	838.606	28.7803
12.3763	837.802	28.8486
12.3822	840.327	28.917
12.3874	837.814	28.9854
12.3932	835.1427	29.0537
12.3995	830.146	29.12207
12.4045	834.276	29.19043
12.41	837.95	29.2588
12.4166	836.863	29.3271
12.4226	843.609	29.3955
12.42793	848.871	29.4639
12.43287	850.567	29.5322
12.4394	850.849	29.6006
12.44507	851.366	29.6689
12.4508	846.033	29.7373
12.4562	841.564	29.8057
12.4616	844.515	29.874
12.4681	845.817	29.9424
12.4729	845.708	30.0107
12.47943	850.505	30.0791
12.4851	853.596	30.1475
12.4907	859.027	30.21582
12.4955	859.351	30.28418
12.5013	859.456	30.3525
12.5076	855.897	30.4209
12.513	854.328	30.4893
12.5194	853.776	30.5576
12.52439	852.042	30.626
12.5306	852.861	30.6943
12.5359	856.203	30.7627
12.5414	858.227	30.8311
12.5472	863.97	30.8994
12.5534	867.921	30.9678
12.5588	866.332	31.0361
12.5656	864.4	31.1045
12.57018	862.482	31.1729
12.5755	861.793	31.2412
12.5815	858.965	31.30957
12.58681	856.851	31.37793
12.5927	862.428	31.4463
12.5988	860.655	31.5146
12.6038	866.4881	31.583
12.6096	869.055	31.6514
12.6157	870.071	31.7197
12.6223	865.897	31.7881
12.6267	867.358	31.8564
12.6339	868.364	31.9248
12.6383	863.277	31.9932
12.6442	862.196	32.0615
12.6497	862.684	32.1299
12.655	864.537	32.1982
12.6613	867.886	32.2666
12.6663	873.646	32.335
12.6733	873.97	32.40332
12.6786	871.284	32.47168
12.6835	874.443	32.54
12.6894	875.374	32.6084
12.6968	870.843	32.6768
12.701	867.644	32.7451
12.7065	869.794	32.8135
12.71113	867.499	32.8818
12.719	869.684	32.9502
12.7241	875.522	33.0186
12.7308	877.303	33.0869
12.7352	876.023	33.1553
12.7404	879.084	33.2236
12.7465	879.501	33.292
12.7528	875.578	33.3604
12.7593	873.449	33.4287
12.7633	873.158	33.49707
12.7684	870.0921	33.56543
12.7739	873.693	33.6338
12.781	877.575	33.7021
12.786	881.38	33.7705
12.7927	879.879	33.8389
12.7978	882.661	33.9072
12.80365	886.313	33.9756
12.8095	883.014	34.0439
12.815	879.547	34.1123
12.8194	877.769	34.1807
12.8275	875.144	34.249
12.8316	877.288	34.3174
12.8376	879.435	34.3857
12.8436	879.848	34.4541
12.8495	881.898	34.5225
12.8548	886.531	34.59082
12.8608	888.851	34.65918
12.8653	886.131	34.7275
12.8718	886.383	34.7959
12.87774	882.777	34.8643
12.8832	879.531	34.9326
12.8895	881.138	35.001
12.8946	881.46	35.0693
12.9004	881.504	35.1377
12.90595	882.085	35.2061
12.9126	888.39	35.2744
12.917	892.183	35.3428
12.9232	891.199	35.4111
12.9294	888.951	35.4795
12.9346	888.294	35.5479
12.9405	882.489	35.6162
12.946	883.83	35.68457
12.9518	883.019	35.75293
12.9583	881.727	35.8213
12.9629	883.898	35.8896
12.9691	890.382	35.958
12.9743	892.172	36.0264
12.9802	891.186	36.0947
12.9859	892.591	36.1631
12.9914	891.939	36.2314
12.9973	888.006	36.2998
13.0032	885.324	36.3682
13.0089	887.4563	36.4365
13.0139	882.82	36.5049
13.0192	884.185	36.5732
13.0255	889.509	36.6416
13.0311	893.255	36.71
13.0371	893.543	36.77832
13.0423	895.302	36.84668
13.0488	896.514	36.915
13.0544	894.004	36.9834
13.0607	890.979	37.0518
13.0661	890.677	37.1201
13.0712	885.506	37.1885
13.07705	885.0304	37.2568
13.0828	890.449	37.3252
13.0893	893.325	37.3936
13.09415	894.853	37.4619
13.09981	896.498	37.5303
13.1054	897.2345	37.5986
13.112	898.071	37.667
13.1168	895.08	37.7354
13.12212	891.6286	37.8037
13.128	886.562	37.87207
13.1342	884.035	37.94043
13.1399	889.296	38.0088
13.145	893.713	38.0771
13.1518	892.628	38.1455
13.1563	896.788	38.2139
13.1621	899.253	38.2822
13.1684	899.25	38.3506
13.1736	897.695	38.4189
13.17922	895.797	38.4873
13.1852	890.998	38.5557
13.1914	886.683	38.624
13.1956	889.695	38.6924
13.2022	890.57	38.7607
13.2081	893.1781	38.8291
13.2143	897.446	38.8975
13.22	899.185	38.96582
13.225	900.471	39.03418
13.2314	902.0965	39.1025
13.2355	894.517	39.1709
13.2425	892.484	39.2393
13.2487	890.738	39.3076
13.253	892.134	39.376
13.2596	888.951	39.4443
13.2657	892.416	39.5127
13.2706	896.424	39.5811
13.2763	898.057	39.6494
13.2828	899.996	39.7178
13.2871	901.886	39.7861
13.2934	900.664	39.8545
13.2997	894.455	39.9229
13.3053	893.172	39.9912
13.3069	898.748	40.0205

Data Header:			0.254_hd_uprint_typei_4545_r0			Time:	60.0254	s	4/15/2019 4:16:19 PM
Data Acquisition:	Timed
Station Name:	ft40.cfg
Test File Name:	monotonic_0.2540_typei_hd_4545_uprint.tst
Displacement	Force	Running Time
mm	N	s
13.308	900.61	40.0303
13.314	903.1828	40.0986
13.3198	900.476	40.167
13.3259	899.661	40.2354
13.3308	897.542	40.3037
13.337	891.166	40.37207
13.3419	890.647	40.44043
13.3477	893.125	40.5088
13.3542	894.7334	40.5771
13.3601	896.648	40.6455
13.36629	901.7746	40.7139
13.3701	902.331	40.7822
13.3763	902.0459	40.8506
13.3821	903.428	40.9189
13.389	899.999	40.9873
13.394	893.162	41.0557
13.3996	890.538	41.124
13.4055	893.965	41.1924
13.4096	893.385	41.2607
13.4167	896.5387	41.3291
13.4223	899.458	41.3975
13.4274	901.795	41.46582
13.4339	903.447	41.53418
13.4396	903.768	41.6025
13.4444	902.009	41.6709
13.4502	894.943	41.7393
13.4563	893.053	41.8076
13.4616	895.476	41.876
13.4673	892.914	41.9443
13.47333	893.707	42.0127
13.4793	900.396	42.0811
13.4848	902.708	42.1494
13.4907	902.604	42.2178
13.4956	906.091	42.2861
13.5024	904.269	42.3545
13.50771	896.854	42.4229
13.5144	893.907	42.4912
13.5189	898.241	42.55957
13.5246	894.19	42.62793
13.5299	892.541	42.6963
13.5359	897.1405	42.7646
13.5422	900.146	42.833
13.5478	903.08	42.9014
13.5531	905.428	42.9697
13.5585	905.831	43.0381
13.56459	899.9165	43.1064
13.57054	897.668	43.1748
13.5752	900.182	43.2432
13.5826	894.739	43.3115
13.587	893.254	43.3799
13.5924	896.154	43.4482
13.5981	898.895	43.5166
13.60426	901.744	43.585
13.61	905.295	43.65332
13.6165	905.277	43.72168
13.6214	903.0575	43.79
13.6277	900.661	43.8584
13.63257	900.523	43.9268
13.6389	895.073	43.9951
13.6447	892.425	44.0635
13.6506	895.339	44.1318
13.6557	895.638	44.2002
13.6612	899.282	44.2686
13.667	903.441	44.3369
13.6745	907.538	44.4053
13.6791	904.897	44.4736
13.6846	904.425	44.542
13.691	900.676	44.6104
13.6951	898.059	44.6787
13.702	896.871	44.74707
13.7075	894.8446	44.81543
13.7133	896.099	44.8838
13.7187	901.078	44.9521
13.72369	903.949	45.0205
13.7291	904.3233	45.0889
13.7361	904.7323	45.1572
13.7412	905.242	45.2256
13.7473	905.016	45.2939
13.7521	898.747	45.3623
13.7587	898.0744	45.4307
13.7636	897.114	45.499
13.7698	895.4696	45.5674
13.7758	897.677	45.6357
13.7813	903.185	45.7041
13.7866	902.966	45.7725
13.7921	901.8894	45.84082
13.7981	906.471	45.90918
13.8039	906.46	45.9775
13.80934	901.777	46.0459
13.8159	900.029	46.1143
13.8217	899.114	46.1826
13.8273	896.062	46.251
13.8321	897.425	46.3193
13.8382	901.4895	46.3877
13.8452	901.654	46.4561
13.85067	901.0932	46.5244
13.8555	904.689	46.5928
13.8606	906.786	46.6611
13.8662	904.687	46.7295
13.8727	902.336	46.7979
[...]
14.4715	902.379	53.9756
14.475	903.589	54.0439
14.4811	902.942	54.1123
14.4871	895.999	54.1807
14.4929	896.584	54.249
14.4982	896.686	54.3174
14.5049	896.128	54.3857
14.5107	900.416	54.4541
14.5149	906.742	54.5225
14.521	905.316	54.59082
14.5277	903.096	54.65918
14.5332	905.885	54.7275
14.5383	905.688	54.7959
14.5439	898.465	54.8643
14.5496	896.912	54.9326
14.557	899.341	55.001
14.5613	897.574	55.0693
14.5662	899.157	55.1377
14.5722	904.024	55.2061
14.57871	904.886	55.2744
14.5841	903.956	55.3428
14.5903	907.681	55.4111
14.59615	907.479	55.4795
14.601	902.377	55.5479
14.6081	898.157	55.6162
14.6118	897.161	55.68457
14.6182	895.072	55.75293
14.62516	897.631	55.8213
14.6292	902.208	55.8896
14.6361	903.028	55.958
14.6414	902.258	56.0264
14.6468	907.145	56.0947
14.6521	908.1156	56.1631
14.6578	904.547	56.2314
14.6648	902.235	56.2998
14.6688	897.818	56.3682
14.6745	896.409	56.4365
14.6806	896.572	56.5049
14.6868	898.353	56.5732
14.693	898.535	56.6416
14.6985	900.669	56.71
14.7043	906.085	56.77832
14.7092	906.958	56.84668
14.71496	905.443	56.915
14.7216	903.27	56.9834
14.7258	899.874	57.0518
14.73265	897.441	57.1201
14.7383	899.0318	57.1885
14.7439	898.844	57.2568
14.7492	897.602	57.3252
14.7548	899.077	57.3936
14.7606	905.172	57.4619
14.7657	907.603	57.5303
14.772	905.124	57.5986
14.7782	906.147	57.667
14.7839	902.2113	57.7354
14.7896	899.682	57.8037
14.7942	898.824	57.87207
14.8006	897.74	57.94043
14.8064	896.62	58.0088
14.8123	897.556	58.0771
14.8184	904.335	58.1455
14.8238	906.118	58.2139
14.8296	905.294	58.2822
14.83443	908.25	58.3506
14.8406	904.832	58.4189
14.8467	902.615	58.4873
14.8518	900.632	58.5557
14.85746	897.289	58.624
14.8633	895.106	58.6924
14.869	894.825	58.7607
14.8751	903.253	58.8291
14.8799	902.74	58.8975
14.8871	904.134	58.96582
14.8912	906.51	59.03418
14.89849	906.021	59.1025
14.9031	903.389	59.1709
14.9089	902.3	59.2393
14.915	899.919	59.3076
14.92	896.107	59.376
14.925	892.939	59.4443
14.932	900.928	59.5127
14.9366	902.781	59.5811
14.94378	902.281	59.6494
14.9486	905.375	59.7178
14.9538	907.304	59.7861
14.9601	905.504	59.8545
14.9658	902.859	59.9229
14.97206	900.669	59.9912
14.97473	900.797	60.0205

Data Header:			0.254_hd_uprint_typei_4545_r0			Time:	75.1965	s	4/15/2019 4:16:34 PM
Data Acquisition:	Timed
Station Name:	ft40.cfg
Test File Name:	monotonic_0.2540_typei_hd_4545_uprint.tst
Displacement	Force	Running Time
mm	N	s
14.9747	907.363	60.0303
14.9816	907.012	60.0889
14.9846	903.23	60.1475
14.9889	904.214	60.2061
14.9947	899.519	60.2646
14.99993	899.192	60.3232
15.0043	895.705	60.3818
15.0095	896.972	60.44043
15.0136	895.321	60.499
15.0182	899.649	60.5576
15.0239	897.77	60.6162
15.0275	901.899	60.6748
15.0325	901.565	60.7334
15.03857	906.493	60.792
15.0436	904.342	60.8506
15.0481	906.3537	60.90918
15.053	907.611	60.9678
15.0579	903.574	61.0264
15.0619	904.545	61.085
15.0683	899.504	61.1436
15.072	899.197	61.2021
15.0769	893.75	61.2607
15.0818	897.8374	61.3193
15.0869	894.216	61.37793
15.0924	894.658	61.4365
15.0962	896.369	61.4951
15.1025	898.596	61.5537
15.1061	900.382	61.6123
15.1117	902.842	61.6709
15.1155	907.019	61.7295
15.1211	904.834	61.7881
15.1258	909.382	61.84668
15.1315	907.451	61.9053
15.1354	905.7486	61.9639
15.1423	904.164	62.0225
15.1461	900.4375	62.0811
15.14985	898.898	62.1396
15.155	898.991	62.1982
15.1601	898.477	62.2568
15.166	893.9425	62.31543
15.17067	897.758	62.374
15.1747	895.473	62.4326
15.1802	901.179	62.4912
15.185	900.185	62.5498
15.1888	903.8446	62.6084
15.1944	903.111	62.667
15.2004	908.284	62.7256
15.20404	906.221	62.78418
15.2099	904.106	62.8428
15.2133	903.857	62.9014
15.2184	901.807	62.96
15.2238	900.008	63.0186
15.2282	897.489	63.0771
15.2339	899.147	63.1357
15.2377	892.756	63.1943
15.2432	896.228	63.25293
15.24764	893.584	63.3115
15.2535	895.97	63.3701
15.25728	896.392	63.4287
15.2623	899.978	63.4873
15.2671	900.384	63.5459
15.27337	901.815	63.6045
15.2779	905.944	63.6631
15.2818	903.983	63.72168
15.2865	906.631	63.7803
15.2926	904.357	63.8389
15.2972	904.226	63.8975
15.3018	900.767	63.9561
15.3071	898.485	64.0146
15.31125	898.138	64.0732
15.3165	895.215	64.1318
15.3213	897.754	64.19043
15.3266	895.023	64.249
15.3307	898.76	64.3076
15.3364	897.318	64.3662
15.3413	900.103	64.4248
15.346	901.388	64.4834
15.3507	905.845	64.542
15.3559	904.781	64.6006
15.3603	904.523	64.65918
15.3656	904.638	64.7178
15.3701	903.214	64.7764
15.3741	901.165	64.835
15.3804	900.713	64.8936
15.3844	898.9137	64.9521
15.3904	894.036	65.0107
15.3952	897.73	65.0693
15.4001	893.691	65.12793
15.4052	895.779	65.1865
15.4103	894.988	65.2451
15.4131	899.196	65.3037
15.4188	897.727	65.3623
15.42297	901.6	65.4209
15.4289	903.816	65.4795
15.43437	903.287	65.5381
15.4381	905.609	65.59668
15.4434	905.209	65.6553
15.4492	904.155	65.7139
15.4526	902.328	65.7725
15.458	902.743	65.8311
15.463	897.483	65.8896
15.4677	898.045	65.9482
15.4729	895.377	66.0068
15.4769	894.463	66.06543
15.4834	897.543	66.124
15.4875	897.504	66.1826
15.4925	898.628	66.2412
15.4977	898.655	66.2998
15.5021	904.323	66.3584
15.50648	903.152	66.417
15.5123	904.7749	66.4756
15.5162	905.442	66.53418
15.522	904.688	66.5928
15.527	903.078	66.6514
15.532	902.07	66.71
15.536	899.818	66.7686
15.54142	897.509	66.8271
15.5465	897.232	66.8857
15.5496	893.4292	66.9443
15.5563	895.584	67.00293
15.5609	893.773	67.0615
15.5651	897.427	67.1201
15.57017	895.7	67.1787
15.5752	901.588	67.2373
15.58	899.62	67.2959
15.5853	903.956	67.3545
15.5892	904.918	67.4131
15.5951	905.164	67.47168
15.5992	905.145	67.5303
15.6048	904.123	67.5889
15.6094	903.639	67.6475
15.6138	900.834	67.7061
15.6185	901.634	67.7646
15.6249	896.366	67.8232
15.6298	896.584	67.8818
15.6338	896.44	67.94043
15.639	897.007	67.999
15.6438	897.7276	68.0576
15.6486	899.173	68.1162
15.6526	902.33	68.1748
15.6578	900.753	68.2334
15.6625	906.17	68.292
15.6691	904.543	68.3506
15.67347	907.057	68.40918
15.6774	906.179	68.4678
15.6835	905.25	68.5264
15.68814	901.116	68.585
15.6917	898.748	68.6436
15.6977	899.337	68.7021
15.7021	894.97	68.7607
15.7074	894.324	68.8193
15.712	893.401	68.87793
15.7163	894.227	68.9365
15.7227	892.844	68.9951
15.7268	898.473	69.0537
15.7315	896.071	69.1123
15.73688	900.956	69.1709
15.7411	902.631	69.2295
15.7465	904.459	69.2881
15.751	903.556	69.34668
15.7568	906.833	69.4053
15.7616	901.618	69.4639
15.7657	901.938	69.5225
15.7707	901.69	69.5811
15.7752	898.509	69.6396
15.78	896.354	69.6982
15.7845	895.455	69.7568
15.7907	896.164	69.81543
15.795	894.068	69.874
15.8005	896.594	69.9326
15.8045	898.795	69.9912
15.8097	898.459	70.0498
15.8148	902.951	70.1084
15.8194	904.041	70.167
15.8244	905.544	70.2256
15.83054	905.728	70.28418
15.8339	906.72	70.3428
15.8391	901.379	70.4014
15.8434	901.344	70.46
15.8497	898.587	70.5186
15.8531	894.831	70.5771
15.8587	894.7066	70.6357
15.8649	892.716	70.6943
15.86795	891.989	70.75293
15.8731	891.32	70.8115
15.8774	894.891	70.8701
15.8818	893.744	70.9287
15.8867	899.623	70.9873
15.8934	897.396	71.0459
15.8972	901.464	71.1045
15.9024	903.104	71.1631
15.9071	905.027	71.22168
15.9114	901.466	71.2803
15.9161	902.546	71.3389
15.9217	902.017	71.3975
15.9262	897.0412	71.4561
15.931	897.474	71.5146
15.93611	896.9054	71.5732
15.9419	894.733	71.6318
15.9461	892.235	71.69043
15.9509	895.348	71.749
15.9561	895.056	71.8076
15.9606	894.878	71.8662
15.9655	900.409	71.9248
15.97083	900.342	71.9834
15.9761	903.54	72.042
15.9802	902.816	72.1006
15.9859	903.9895	72.15918
15.9915	900.79	72.2178
15.9953	902.894	72.2764
16	897.216	72.335
16.0048	895.423	72.3936
16.0097	894.488	72.4521
16.0146	890.094	72.5107
16.0195	888.657	72.5693
16.0242	889.448	72.62793
16.0295	891.272	72.6865
16.0359	889.178	72.7451
16.0391	893.452	72.8037
16.0431	888.5	72.8623
16.0533	-43.9998	72.9209
16.0549	-48.3961	72.9795
16.0605	-41.6156	73.0381
16.0638	-44.1988	73.09668
16.0685	-43.98951	73.1553
16.0751	-45.0184	73.2139
16.0811	-47.2854	73.2725
16.0837	-47.1961	73.3311
16.089	-51.815	73.3896
16.0934	-51.9567	73.4482
16.0973	-53.9001	73.5068
16.1023	-52.0951	73.56543
16.1078	-52.0558	73.624
16.1116	-50.8724	73.6826
16.1178	-47.5199	73.7412
16.1228	-47.808	73.7998
16.1268	-44.5251	73.8584
16.1321	-43.4942	73.917
16.13731	-42.1122	73.9756
16.142	-43.0622	74.03418
16.1468	-40.1391	74.0928
16.1531	-45.4393	74.1514
16.1575	-45.6459	74.21
16.1604	-47.6097	74.2686
16.1664	-49.3888	74.3271
16.1711	-52.4463	74.3857
16.1761	-54.5802	74.4443
16.1815	-52.4572	74.50293
16.1868	-56.5004	74.5615
16.1901	-49.6859	74.6201
16.1958	-52.70668	74.6787
16.2004	-47.8095	74.7373
16.2064	-45.8851	74.7959
16.2106	-43.484	74.8545
16.2161	-45.917	74.9131
16.2196	-40.6918	74.97168
16.2247	-42.96957	75.0303
16.2302	-45.9169	75.0889
16.2341	-47.2685	75.1475
16.2379	-53.0412	75.1865