File: data/processed_data_files/tensile/0.254_hd_dimension_typeiv_4545_r(1).dat
MTS793|BTW|ENU|1|2|.|/|:|1|0|0|A

Data Header:			0.254_hd_dimension_typeiv_4545_r0			Time:	20.0178	s	4/13/2019 8:11:27 PM
Data Acquisition:	Timed
Station Name:	ft40.cfg
Test File Name:	monotonic_0.2540_typeiv_hd_4545_dimension.tst
Displacement	Force	Running Time
mm	N	s
-40.0337	-52.1828	0.0227051
-40.0339	-53.4153	0.0910645
-40.0291	-50.1244	0.159424
-40.0214	-48.89534	0.2277832
-40.01696	-49.8819	0.296143
-40.0104	-47.5135	0.364502
-40.0059	-38.7292	0.432861
-39.9985	-35.6275	0.5012207
-39.99419	-30.5372	0.56958
-39.9878	-25.6345	0.637939
-39.982	-22.9137	0.706299
-39.9765	-19.20727	0.7746582
-39.9704	-17.7533	0.843018
-39.96595	-17.1366	0.911377
-39.959	-17.5002	0.979736
-39.954	-12.8483	1.0481
-39.9483	-8.93658	1.11646
-39.9423	-4.37015	1.18481
-39.9358	-0.400863	1.25317
-39.9306	5.813262	1.32153
-39.9251	10.3857	1.38989
-39.92	14.7983	1.458252
-39.914	16.44058	1.52661
-39.90773	17.1997	1.59497
-39.9025	18.4266	1.66333
-39.89658	21.442	1.73169
-39.8912	23.6038	1.80005
-39.8847	26.901	1.86841
-39.8794	33.1583	1.93677
-39.8734	37.9179	2.005127
-39.8677	41.74831	2.07349
-39.86274	48.8422	2.14185
-39.8577	50.3626	2.21021
-39.8512	49.8004	2.27856
-39.8458	50.4503	2.34692
-39.8398	54.6162	2.41528
-39.8346	55.0716	2.48364
-39.8279	58.606	2.552002
-39.8237	65.0198	2.62036
-39.8176	67.9176	2.68872
-39.8122	73.8346	2.75708
-39.805	80.9773	2.82544
-39.7997	83.252	2.8938
-39.7935	81.9029	2.96216
-39.78912	84.561	3.03052
-39.781	91.6022	3.098877
-39.7776	88.09214	3.16724
-39.7711	90.833	3.2356
-39.7653	95.1581	3.30396
-39.761	98.0044	3.37231
-39.755	103.967	3.44067
-39.7489	110.202	3.50903
-39.7434	113.131	3.57739
-39.7369	114.348	3.645752
-39.7313	119.683	3.71411
-39.7265	124.823	3.78247
-39.7206	121.532	3.85083
-39.7144	123.92	3.91919
-39.7077	127.837	3.98755
-39.7035	131.326	4.05591
-39.6971	135.94	4.12427
-39.6916	142.175	4.192627
-39.6873	145.3614	4.26099
-39.6808	146.839	4.32935
-39.6757	152.135	4.39771
-39.66922	156.091	4.46606
-39.6635	154.825	4.53442
-39.6572	157.363	4.60278
-39.6526	158.899	4.67114
-39.6455	161.728	4.739502
-39.63987	166.074	4.80786
-39.635	170.524	4.87622
-39.6282	174.2471	4.94458
-39.6239	176.983	5.01294
-39.61858	184.48	5.0813
-39.6128	187.216	5.14966
-39.6056	187.45	5.21802
-39.60141	187.873	5.286377
-39.5955	189.473	5.35474
-39.5892	194.483	5.4231
-39.5831	196.789	5.49146
-39.5771	198.691	5.55981
-39.5718	201.8721	5.62817
-39.5666	207.58	5.69653
-39.5619	214.648	5.76489
-39.5547	218.076	5.833252
-39.5498	219.723	5.90161
-39.5437	221.467	5.96997
-39.5377	218.807	6.03833
-39.5323	223.857	6.10669
-39.5265	227.929	6.17505
-39.5204	227.871	6.24341
-39.5162	229.572	6.31177
-39.5088	238.9641	6.380127
-39.5034	244.34	6.44849
-39.4971	244.847	6.51685
-39.4929	249.3325	6.58521
-39.4874	250.9427	6.65356
-39.4817	250.52	6.72192
-39.4756	254.481	6.79028
-39.4694	257.3681	6.85864
-39.4643	255.774	6.927002
-39.4579	259.176	6.99536
-39.4526	268.091	7.06372
-39.4467	272.141	7.13208
-39.4415	273.7215	7.20044
-39.4358	280.282	7.2688
-39.43	282.783	7.33716
-39.4242	282.218	7.40552
-39.4185	285.759	7.473877
-39.41283	287.127	7.54224
-39.4073	284.599	7.6106
-39.4035	288.023	7.67896
-39.3965	296.218	7.74731
-39.3909	299.14	7.81567
-39.3847	301.666	7.88403
-39.3782	308.158	7.95239
-39.3728	309.913	8.020752
-39.3679	312.481	8.08911
-39.3615	315.903	8.15747
-39.3563	316.159	8.22583
-39.3505	312.874	8.29419
-39.3444	316.862	8.36255
-39.3397	322.903	8.43091
-39.33276	324.064	8.49927
-39.328	327.787	8.567627
-39.32169	335.24	8.63599
-39.31662	337.832	8.70435
-39.31076	340.161	8.77271
-39.30426	344.165	8.84106
-39.2988	343.825	8.90942
-39.2934	339.924	8.97778
-39.2868	344.38	9.04614
-39.281	348.953	9.114502
-39.2765	349.698	9.18286
-39.2697	355.354	9.25122
-39.266	359.326	9.31958
-39.2593	364.119	9.38794
-39.2534	367.246	9.4563
-39.247	369.678	9.52466
-39.2431	368.541	9.59302
-39.2366	368.5632	9.661377
-39.2319	372.563	9.72974
-39.2252	375.041	9.7981
-39.2185	375.148	9.86646
-39.21479	380.231	9.93481
-39.2085	383.659	10.0032
-39.2028	389.289	10.0715
-39.1954	393.243	10.1399
-39.1909	396.191	10.2083
-39.1854	393.919	10.2766
-39.18	395.614	10.345
-39.17337	398.23	10.41333
-39.16798	397.964	10.4817
-39.163	399.2814	10.55
-39.1564	401.807	10.6184
-39.1514	404.027	10.6868
-39.1468	410.345	10.7551
-39.1395	416.817	10.8235
-39.1344	417.569	10.8918
-39.1277	418.049	10.9602
-39.1219	420.96	11.0286
-39.11758	423.021	11.0969
-39.1113	420.736	11.1653
-39.1059	421.896	11.2336
-39.1001	425.896	11.302
-39.0948	425.833	11.3704
-39.088	432.086	11.4387
-39.0827	437.528	11.50708
-39.07732	436.888	11.5754
-39.0699	437.415	11.6438
-39.0651	442.088	11.7122
-39.0597	443.093	11.7805
-39.054	440.85	11.8489
-39.048	442.157	11.9172
-39.0434	442.75	11.9856
-39.0386	445.362	12.054
-39.0317	449.063	12.1223
-39.0261	452.5463	12.1907
-39.0194	453.345	12.259
-39.014	455.233	12.3274
-39.00798	461.079	12.3958
-39.0028	460.138	12.4641
-38.9971	458.622	12.5325
-38.9919	458.822	12.60083
-38.986	460.562	12.6692
-38.9803	460.421	12.7375
-38.9754	462.169	12.8059
-38.9687	465.302	12.8743
-38.9638	464.565	12.9426
-38.9572	467.429	13.011
-38.9517	475.02	13.0793
-38.94622	472.747	13.1477
-38.9413	472.5614	13.2161
-38.9339	473.271	13.2844
-38.9283	471.356	13.3528
-38.9237	472.235	13.4211
-38.9187	472.5928	13.4895
-38.9125	473.655	13.5579
-38.9062	474.278	13.6262
-38.901	476.8649	13.69458
-38.8952	483.338	13.7629
-38.8901	482.584	13.8313
-38.8842	480.947	13.8997
-38.87809	480.031	13.968
-38.8727	479.037	14.0364
-38.8666	479.784	14.1047
-38.8606	478.8573	14.1731
-38.8558	476.887	14.2415
-38.849	479.017	14.3098
-38.8435	481.953	14.3782
-38.8382	484.646	14.4465
-38.83139	485.848	14.5149
-38.8266	486.6394	14.5833
-38.8211	484.895	14.6516
-38.8161	483.487	14.72
-38.8102	484.075	14.78833
-38.80394	480.448	14.8567
-38.7978	480.374	14.925
-38.7936	480.149	14.9934
-38.7858	483.291	15.0618
-38.7805	483.452	15.1301
-38.7763	485.695	15.1985
-38.7704	488.991	15.2668
-38.7637	486.863	15.3352
-38.75909	486.49	15.4036
-38.7528	487.242	15.4719
-38.7469	484.375	15.5403
-38.74094	477.759	15.6086
-38.7354	479.69	15.677
-38.7303	483.857	15.7454
-38.7231	481.708	15.8137
-38.7184	484.91	15.88208
-38.712	487.712	15.9504
-38.7061	486.769	16.0188
-38.7021	487.545	16.0872
-38.6959	487.68	16.1555
-38.6895	484.0318	16.2239
-38.6851	478.244	16.2922
-38.6789	479.469	16.3606
-38.6738	482.972	16.429
-38.6677	481.098	16.4973
-38.6609	483.247	16.5657
-38.6561	487.31	16.634
-38.6506	486.32	16.7024
-38.6441	485.731	16.7708
-38.6399	489.313	16.8391
-38.6322	484.52	16.9075
-38.6272	480.249	16.97583
-38.622	482.107	17.0442
-38.6163	482.492	17.1125
-38.6092	480.618	17.1809
-38.6035	481.284	17.2493
-38.5975	485.051	17.3176
-38.5919	485.399	17.386
-38.5868	487.7547	17.4543
-38.5794	489.077	17.5227
-38.5747	483.802	17.5911
-38.5713	479.674	17.6594
-38.564	482.111	17.7278
-38.5582	480.124	17.7961
-38.552	479.789	17.8645
-38.5475	480.126	17.9329
-38.5426	481.388	18.0012
-38.5366	484.354	18.06958
-38.5305	487.39	18.1379
-38.5252	488.822	18.2063
-38.5201	484.679	18.2747
-38.513	482.908	18.343
-38.5065	483.015	18.4114
-38.5016	479.647	18.4797
-38.49509	478.592	18.5481
-38.4909	478.5824	18.6165
-38.4851	479.406	18.6848
-38.4776	483.619	18.7532
-38.47353	487.029	18.8215
-38.4676	485.054	18.8899
-38.4608	483.055	18.9583
-38.4562	484.847	19.0266
-38.4501	485.25	19.095
-38.4455	479.87	19.16333
-38.439	480.249	19.2317
-38.4333	478.613	19.3
-38.4276	478.147	19.3684
-38.4225	482.243	19.4368
-38.41634	484.211	19.5051
-38.4109	482.898	19.5735
-38.4052	482.909	19.6418
-38.3983	486.607	19.7102
-38.39267	485.699	19.7786
-38.3878	481.475	19.8469
-38.382	481.0976	19.9153
-38.3761	478.562	19.9836
-38.3745	484.78	20.0129

Data Header:			0.254_hd_dimension_typeiv_4545_r0			Time:	40.0183	s	4/13/2019 8:11:47 PM
Data Acquisition:	Timed
Station Name:	ft40.cfg
Test File Name:	monotonic_0.2540_typeiv_hd_4545_dimension.tst
Displacement	Force	Running Time
mm	N	s
-38.37286	486.1655	20.0227
-38.3681	483.033	20.0911
-38.3625	480.528	20.1594
-38.3566	482.768	20.2278
-38.35006	478.612	20.2961
-38.3444	477.863	20.3645
-38.3389	480.723	20.4329
-38.3336	479.476	20.5012
-38.32708	484.032	20.56958
-38.3216	486.055	20.6379
-38.3169	484.367	20.7063
-38.3104	482.535	20.7747
-38.3048	483.326	20.843
-38.2993	482.912	20.9114
-38.2924	478.8	20.9797
-38.2889	477.83	21.0481
-38.2826	477.762	21.1165
-38.2761	478.209	21.1848
-38.2705	483.578	21.2532
-38.2648	484.625	21.3215
-38.2586	481.888	21.3899
-38.2546	482.314	21.4583
-38.247	485.3338	21.5266
-38.2421	481.8	21.595
-38.2377	479.415	21.66333
-38.2308	478.467	21.7317
-38.2248	476.429	21.8
-38.2203	478.126	21.8684
-38.2144	481.048	21.9368
-38.2068	483.3862	22.0051
-38.2014	481.075	22.0735
-38.1958	483.421	22.1418
-38.19	486.248	22.2102
-38.1857	482.601	22.2786
-38.1799	479.413	22.3469
-38.174	480.957	22.4153
-38.1687	475.12	22.4836
-38.1625	476.73	22.552
-38.1561	480.3	22.6204
-38.1505	479.588	22.6887
-38.1448	477.42	22.75708
-38.13942	482.846	22.8254
-38.1343	486.098	22.8938
-38.1281	481.973	22.9622
-38.1222	479.629	23.0305
-38.1171	481.635	23.0989
-38.1109	475.326	23.1672
-38.1054	476.203	23.2356
-38.0991	478.488	23.304
-38.0948	475.994	23.3723
-38.0879	475.533	23.4407
-38.0827	483.514	23.509
-38.0764	484.879	23.5774
-38.0705	481.5867	23.6458
-38.0654	481.026	23.7141
-38.0588	481.298	23.7825
-38.0542	479.274	23.85083
-38.0477	476.7309	23.9192
-38.0434	477.08	23.9875
-38.0375	475.752	24.0559
-38.0315	475.204	24.1243
-38.0251	481.967	24.1926
-38.0199	482.158	24.261
-38.0149	481.266	24.3293
-38.0087	482.767	24.3977
-38.0025	481.136	24.4661
-37.9961	480.245	24.5344
-37.9916	477.443	24.6028
-37.9854	475.745	24.6711
-37.9798	473.404	24.7395
-37.97504	473.008	24.8079
-37.968	477.673	24.8762
-37.9631	480.827	24.94458
-37.9576	482.551	25.0129
-37.9516	481.764	25.0813
-37.9458	480.974	25.1497
-37.9406	480.92	25.218
-37.9342	478.724	25.2864
-37.9286	475.49	25.3547
-37.9234	473.63	25.4231
-37.9182	475.038	25.4915
-37.9124	476.806	25.5598
-37.9061	477.481	25.6282
-37.9005	482.26	25.6965
-37.89468	483.237	25.7649
-37.8888	481.494	25.8333
-37.8839	483.855	25.9016
-37.8767	481.051	25.97
-37.8732	476.623	26.03833
-37.8668	473.738	26.1067
-37.8603	476.415	26.175
-37.8546	475.737	26.2434
-37.8492	474.873	26.3118
-37.8428	478.207	26.3801
-37.838	480.446	26.4485
-37.8321	481.9267	26.5168
-37.8257	483.432	26.5852
-37.8198	482.685	26.6536
-37.8162	476.6185	26.7219
-37.809	473.4389	26.7903
-37.80349	477.888	26.8586
-37.7974	474.273	26.927
-37.7922	473.961	26.9954
-37.7872	479.618	27.0637
-37.7796	480.554	27.13208
-37.7757	479.945	27.2004
-37.7693	483.617	27.2688
-37.763	483.862	27.3372
-37.7587	478.0127	27.4055
-37.752	476.5311	27.4739
-37.7469	477.192	27.5422
-37.7418	473.913	27.6106
-37.7351	472.955	27.679
-37.7297	477.269	27.7473
-37.7238	478.42	27.8157
-37.7174	479.435	27.884
-37.712	482.927	27.9524
-37.7072	483.9761	28.0208
-37.7009	479.372	28.0891
-37.6951	476.454	28.1575
-37.6894	479.835	28.22583
-37.6847	474.705	28.2942
-37.6786	472.812	28.3625
-37.673	475.8	28.4309
-37.6671	474.713	28.4993
-37.6613	478.542	28.5676
-37.6554	482.715	28.636
-37.6498	480.949	28.7043
-37.644	479.466	28.7727
-37.639	480.9751	28.8411
-37.6315	479.428	28.9094
-37.6268	475.495	28.9778
-37.6222	474.324	29.0461
-37.6157	475.997	29.1145
-37.6109	474.972	29.1829
-37.6046	478.648	29.2512
-37.5988	480.6228	29.31958
-37.5932	478.455	29.3879
-37.5874	479.8399	29.4563
-37.581	482.527	29.5247
-37.5752	480.148	29.593
-37.56982	477.451	29.6614
-37.5646	475.545	29.7297
-37.5601	474.021	29.7981
-37.5521	473.6524	29.8665
-37.5464	477.331	29.9348
-37.5405	476.475	30.0032
-37.536	476.15	30.0715
-37.5312	478.74	30.1399
-37.5243	481.793	30.2083
-37.5182	479.7424	30.2766
-37.513	477.841	30.345
-37.5079	476.802	30.41333
-37.5012	472.2326	30.4817
-37.4959	474.929	30.55
-37.4902	476.675	30.6184
-37.48365	476.8024	30.6868
-37.479	474.741	30.7551
-37.4726	479.148	30.8235
-37.4671	483.26	30.8918
-37.4607	477.943	30.9602
-37.4551	479.199	31.0286
-37.4506	479.015	31.0969
-37.4435	474.6777	31.1653
-37.4391	473.77	31.2336
-37.4333	477.022	31.302
-37.4277	474.608	31.3704
-37.422	473.906	31.4387
-37.4153	477.73	31.50708
-37.4099	483.329	31.5754
-37.4051	479.442	31.6438
-37.3996	481.546	31.7122
-37.3932	481.531	31.7805
-37.3871	476.215	31.8489
-37.3818	475.385	31.9172
-37.3767	474.969	31.9856
-37.3713	473.636	32.054
-37.3651	473.378	32.1223
-37.3589	477.139	32.1907
-37.3537	480.294	32.259
-37.348	479.331	32.3274
-37.341	479.284	32.3958
-37.3371	480.983	32.4641
-37.3301	477.616	32.5325
-37.32399	476.804	32.60083
-37.3193	475.374	32.6692
-37.3136	472.244	32.7375
-37.3081	470.707	32.8059
-37.3019	476.721	32.8743
-37.296	476.9053	32.9426
-37.2917	478.586	33.011
-37.2851	479.94	33.0793
-37.2797	480.914	33.1477
-37.2735	478.696	33.2161
-37.2686	478.534	33.2844
-37.2622	476.5874	33.3528
-37.2561	471.948	33.4211
-37.252	471.393	33.4895
-37.2444	475.316	33.5579
-37.2391	475.437	33.6262
-37.2332	477.538	33.69458
-37.2284	478.563	33.7629
-37.2225	478.274	33.8313
-37.2176	481.335	33.8997
-37.2107	480.098	33.968
-37.2049	475.576	34.0364
-37.1995	471.672	34.1047
-37.1941	472.211	34.1731
-37.1878	473.6875	34.2415
-37.18325	474.043	34.3098
-37.1775	476.472	34.3782
-37.1712	478.47	34.4465
-37.1653	478.0632	34.5149
-37.15913	480.705	34.5833
-37.1552	480.9707	34.6516
-37.148	475.981	34.72
-37.1432	473.254	34.78833
-37.1372	473.78	34.8567
-37.1312	473.736	34.925
-37.125	472.043	34.9934
-37.1198	474.424	35.0618
-37.11454	477.602	35.1301
-37.108	476.658	35.1985
-37.1017	480.062	35.2668
-37.0965	481.222	35.3352
-37.0903	477.999	35.4036
-37.0864	473.685	35.4719
-37.08065	475.215	35.5403
-37.0748	472.922	35.6086
-37.0687	469.849	35.677
-37.063	473.047	35.7454
-37.0572	473.6557	35.8137
-37.0523	475.784	35.88208
-37.046	479.158	35.9504
-37.0399	481.319	36.0188
-37.0353	477.335	36.0872
-37.0291	474.399	36.1555
-37.0224	476.2709	36.2239
-37.0175	474.399	36.2922
-37.0126	470.22	36.3606
-37.0058	471.365	36.429
-37.0006	474.215	36.4973
-36.9939	476.122	36.5657
-36.9893	477.975	36.634
-36.9831	478.376	36.7024
-36.9772	476.703	36.7708
-36.9726	475.158	36.8391
-36.967	476.4082	36.9075
-36.9605	473.899	36.97583
-36.9549	471.665	37.0442
-36.9487	471.0239	37.1125
-36.9442	471.194	37.1809
-36.9379	474.495	37.2493
-36.93256	475.067	37.3176
-36.9257	477.031	37.386
-36.9197	475.747	37.4543
-36.9144	476.761	37.5227
-36.9098	479.23	37.5911
-36.9035	473.863	37.6594
-36.8974	472.403	37.7278
-36.8921	471.407	37.7961
-36.8855	469.679	37.8645
-36.8808	473.667	37.9329
-36.875	473.881	38.0012
-36.8697	472.936	38.06958
-36.8633	474.891	38.1379
-36.8572	478.987	38.2063
-36.8519	476.796	38.2747
-36.8466	475.692	38.343
-36.8402	473.087	38.4114
-36.8355	470.954	38.4797
-36.8298	470.1	38.5481
-36.8247	471.595	38.6165
-36.8185	471.624	38.6848
-36.8124	471.702	38.7532
-36.8071	475.458	38.8215
-36.8016	477.409	38.8899
-36.7959	477.186	38.9583
-36.7907	476.521	39.0266
-36.7839	474.1962	39.095
-36.7785	472.579	39.16333
-36.77203	471.068	39.2317
-36.7671	471.253	39.3
-36.7605	471.936	39.3684
-36.7564	469.2919	39.4368
-36.7503	472.002	39.5051
-36.7431	476.752	39.5735
-36.7379	475.895	39.6418
-36.7321	474.552	39.7102
-36.727	474.954	39.7786
-36.7213	472.958	39.8469
-36.714	471.304	39.9153
-36.7101	470.615	39.9836
-36.7056	475.5817	40.0129

Data Header:			0.254_hd_dimension_typeiv_4545_r0			Time:	47.0332	s	4/13/2019 8:11:54 PM
Data Acquisition:	Timed
Station Name:	ft40.cfg
Test File Name:	monotonic_0.2540_typeiv_hd_4545_dimension.tst
Displacement	Force	Running Time
mm	N	s
-36.7071	476.228	40.0227
-36.7038	470.412	40.052
-36.701	474.615	40.0813
-36.6996	468.549	40.1106
-36.6962	477.097	40.1399
-36.69495	470.1424	40.1692
-36.6918	476.032	40.1985
-36.6886	471.703	40.2278
-36.6878	477.149	40.25708
-36.6844	470.733	40.2864
-36.682	473.873	40.3157
-36.67971	472.814	40.345
-36.6763	472.374	40.3743
-36.6744	474.131	40.4036
-36.6726	471.88	40.4329
-36.6697	475.307	40.4622
-36.6665	468.873	40.4915
-36.6645	471.421	40.5208
-36.66346	469.391	40.55
-36.6605	475.758	40.5793
-36.6578	469.168	40.6086
-36.6558	474.321	40.6379
-36.6528	472.248	40.6672
-36.6495	472.769	40.6965
-36.6479	470.022	40.72583
-36.6456	471.135	40.7551
-36.6433	474.107	40.7844
-36.6405	470.051	40.8137
-36.63792	473.695	40.843
-36.6354	469.489	40.8723
-36.6325	476.227	40.9016
-36.6306	468.5899	40.9309
-36.6282	475.049	40.9602
-36.6261	470.278	40.9895
-36.6239	475.848	41.0188
-36.6207	468.141	41.0481
-36.6183	473.768	41.0774
-36.6167	470.051	41.1067
-36.6136	473.8334	41.136
-36.6109	470.046	41.1653
-36.60928	472.533	41.19458
-36.606	473.369	41.2239
-36.6032	469.146	41.2532
-36.60178	473.055	41.2825
-36.5987	469.663	41.3118
-36.5966	474.933	41.3411
-36.5941	465.088	41.3704
-36.5914	473.643	41.3997
-36.5888	465.784	41.429
-36.5869	475.916	41.4583
-36.584	465.529	41.4875
-36.5814	476.629	41.5168
-36.58028	468.046	41.5461
-36.5759	473.29	41.5754
-36.5749	464.872	41.6047
-36.5727	471.169	41.634
-36.5687	468.841	41.66333
-36.5684	470.893	41.6926
-36.5648	468.191	41.7219
-36.5621	470.5405	41.7512
-36.5604	470.063	41.7805
-36.5577	466.476	41.8098
-36.5557	473.913	41.8391
-36.5517	468.64	41.8684
-36.5504	473.387	41.8977
-36.5478	464.278	41.927
-36.544	472.854	41.9563
-36.54311	464.022	41.9856
-36.5405	473.206	42.0149
-36.5375	466.665	42.0442
-36.5358	471.76	42.0735
-36.5333	465.711	42.1028
-36.5303	469.6438	42.13208
-36.5279	466.948	42.1614
-36.5265	469.034	42.1907
-36.5237	467.185	42.22
-36.5208	467.884	42.2493
-36.519	471.174	42.2786
-36.5161	466.253	42.3079
-36.5129	469.483	42.3372
-36.5114	465.961	42.3665
-36.5089	472.201	42.3958
-36.5061	465.476	42.425
-36.5035	469.976	42.4543
-36.5018	464.7171	42.4836
-36.4983	469.3252	42.5129
-36.4968	461.967	42.5422
-36.4953	467.838	42.5715
-36.4904	468.669	42.60083
-36.4898	465.295	42.6301
-36.4863	465.301	42.6594
-36.4846	463.6243	42.6887
-36.48204	468.801	42.718
-36.479	463.489	42.7473
-36.4763	467.737	42.7766
-36.4757	462.23	42.8059
-36.4715	469.008	42.8352
-36.4699	460.185	42.8645
-36.4675	466.766	42.8938
-36.465	462.691	42.9231
-36.4628	465.204	42.9524
-36.4597	462.146	42.9817
-36.4574	466.565	43.011
-36.4546	463.514	43.0403
-36.4528	461.292	43.06958
-36.4502	463.2413	43.0989
-36.4475	462.2	43.1282
-36.44516	463.366	43.1575
-36.443	458.701	43.1868
-36.4396	463.23	43.2161
-36.4378	456.241	43.2454
-36.4358	462.459	43.2747
-36.4334	451.333	43.304
-36.4308	457.602	43.3333
-36.4241	30.6627	43.3625
-36.4233	-51.1971	43.3918
-36.4214	-46.1561	43.4211
-36.4206	-37.0644	43.4504
-36.4176	-43.3882	43.4797
-36.4156	-38.6036	43.509
-36.4137	-43.4945	43.53833
-36.4099	-39.0074	43.5676
-36.4082	-43.6801	43.5969
-36.4057	-44.0116	43.6262
-36.40284	-39.1771	43.6555
-36.4008	-42.322	43.6848
-36.39782	-38.557	43.7141
-36.3963	-45.384	43.7434
-36.3937	-37.088	43.7727
-36.3914	-44.6495	43.802
-36.3887	-36.6039	43.8313
-36.3862	-43.9185	43.8606
-36.384	-36.2621	43.8899
-36.38097	-44.8013	43.9192
-36.3789	-38.6395	43.9485
-36.3761	-43.5077	43.9778
-36.3736	-38.436	44.00708
-36.373	-43.46508	44.0364
-36.3695	-38.2137	44.0657
-36.3673	-41.008	44.095
-36.3645	-42.53017	44.1243
-36.3611	-43.0999	44.1536
-36.3593	-44.0289	44.1829
-36.3576	-37.8291	44.2122
-36.3536	-44.6636	44.2415
-36.3523	-38.9535	44.2708
-36.34903	-41.8465	44.3
-36.3471	-39.2843	44.3293
-36.345	-44.2332	44.3586
-36.3425	-40.3553	44.3879
-36.3406	-41.1353	44.4172
-36.3376	-40.2563	44.4465
-36.3348	-43.591	44.47583
-36.3322	-43.2909	44.5051
-36.3303	-39.6085	44.5344
-36.3281	-41.7295	44.5637
-36.3257	-38.618	44.593
-36.3227	-41.3412	44.6223
-36.3202	-37.562	44.6516
-36.3187	-44.5854	44.6809
-36.3154	-39.3007	44.7102
-36.3135	-43.9409	44.7395
-36.31073	-36.0641	44.7688
-36.3076	-43.412	44.7981
-36.3054	-39.0687	44.8274
-36.3041	-44.1455	44.8567
-36.3008	-42.18161	44.886
-36.299	-41.7711	44.9153
-36.2954	-38.8329	44.94458
-36.2937	-40.5446	44.9739
-36.2903	-44.2812	45.0032
-36.289	-41.2097	45.0325
-36.28709	-43.0604	45.0618
-36.2841	-40.5359	45.0911
-36.282	-44.1639	45.1204
-36.27924	-35.9615	45.1497
-36.2784	-43.9766	45.179
-36.2741	-39.1311	45.2083
-36.2713	-48.4553	45.2375
-36.27	-36.1106	45.2668
-36.2676	-43.567	45.2961
-36.2637	-37.9626	45.3254
-36.2616	-45.9623	45.3547
-36.2593	-40.0357	45.384
-36.25769	-44.0407	45.41333
-36.2542	-44.1558	45.4426
-36.2516	-40.1848	45.4719
-36.2499	-40.0966	45.5012
-36.24728	-40.2681	45.5305
-36.2446	-44.4665	45.5598
-36.2427	-38.3144	45.5891
-36.2394	-44.4758	45.6184
-36.2383	-37.4067	45.6477
-36.2355	-43.222	45.677
-36.2324	-35.9342	45.7063
-36.2314	-46.1709	45.7356
-36.2282	-37.6843	45.7649
-36.2257	-43.391	45.7942
-36.2225	-38.46167	45.8235
-36.2196	-42.96225	45.8528
-36.2179	-38.0276	45.88208
-36.2155	-39.5141	45.9114
-36.21286	-42.3516	45.9407
-36.2102	-43.3416	45.97
-36.2088	-38.5521	45.9993
-36.2055	-38.134	46.0286
-36.2029	-42.9348	46.0579
-36.1994	-39.0639	46.0872
-36.1983	-44.352	46.1165
-36.1958	-38.5334	46.1458
-36.1936	-45.9599	46.175
-36.1903	-39.8386	46.2043
-36.1889	-41.975	46.2336
-36.1868	-39.5965	46.2629
-36.1836	-44.02578	46.2922
-36.1812	-41.8765	46.3215
-36.1786	-39.5866	46.35083
-36.1759	-41.6929	46.3801
-36.17308	-41.403	46.4094
-36.1708	-41.7325	46.4387
-36.1698	-40.3805	46.468
-36.1657	-45.256	46.4973
-36.1637	-39.6378	46.5266
-36.1617	-43.9574	46.5559
-36.1591	-37.3916	46.5852
-36.1568	-45.2525	46.6145
-36.1548	-38.72641	46.6438
-36.1518	-43.5568	46.6731
-36.1494	-40.06097	46.7024
-36.147	-42.6037	46.7317
-36.1453	-38.7392	46.761
-36.1432	-41.6337	46.7903
-36.1406	-41.918	46.81958
-36.138	-41.0229	46.8489
-36.1359	-41.0231	46.8782
-36.1327	-39.8522	46.9075
-36.1301	-45.5733	46.9368
-36.1278	-37.1029	46.9661
-36.1257	-43.26207	46.9954
-36.1231	-39.2198	47.0247