File: data/processed_data_files/tensile/0.254_solid_uprint_typei_090_r(1).dat
MTS793|BTW|ENU|1|2|.|/|:|1|0|0|A

Data Header:			0.254_solid_dimension_typei_090_r0			Time:	20.0225	s	4/15/2019 2:36:23 PM
Data Acquisition:	Timed
Station Name:	ft40.cfg
Test File Name:	monotonic_0.2540_typei_solid_090_dimension.tst
Displacement	Force	Running Time
mm	N	s
9.9717	-144.558	0.02734375
9.97326	-144.794	0.0957031
9.978405	-141.298	0.1640625
9.98408	-136.6	0.232422
9.9895	-132.626	0.300781
9.99506	-125.488	0.369141
10.0014	-117.607	0.4375
10.0075	-114.946	0.505859
10.0125	-114.466	0.574219
10.019	-109.158	0.642578
10.0245	-107.154	0.7109375
10.0294	-109.865	0.779297
10.0361	-108.0431	0.847656
10.0407	-104.093	0.916016
10.0474	-101.96	0.984375
10.0529	-93.816	1.05273
10.0583	-86.8763	1.12109
10.06288	-81.99353	1.18945
10.0702	-80.0091	1.25781
10.076	-73.9714	1.32617
10.0818	-70.7701	1.39453
10.08672	-69.7394	1.46289
10.09224	-71.5477	1.53125
10.0987	-69.9317	1.59961
10.1035	-66.479	1.66797
10.1099	-59.2588	1.73633
10.1152	-53.0194	1.80469
10.1213	-47.2954	1.87305
10.126	-42.5137	1.94141
10.1324	-36.0961	2.00977
10.1385	-32.87574	2.078125
10.1446	-31.3435	2.14648
10.1497	-31.2812	2.21484
10.15481	-31.5201	2.2832
10.1612	-31.3817	2.35156
10.1671	-24.7499	2.41992
10.1728	-18.3326	2.48828
10.1779	-13.2806	2.55664
10.1832	-8.13841	2.625
10.189	0.467422	2.69336
10.195	5.32844	2.76172
10.2012	6.63691	2.83008
10.2069	7.63064	2.89844
10.2129	9.77046	2.9668
10.21765	7.99708	3.03516
10.224	13.2121	3.10352
10.2286	18.86422	3.171875
10.23564	24.0318	3.24023
10.2399	26.9366	3.30859
10.2463	37.9559	3.37695
10.2521	46.1793	3.44531
10.2577	45.1068	3.51367
10.2632	48.5235	3.58203
10.26873	49.2921	3.65039
10.2765	48.8644	3.71875
10.2813	49.6928	3.78711
10.28658	56.4284	3.85547
10.2926	60.4911	3.92383
10.2977	62.0976	3.99219
10.3034	71.0686	4.06055
10.309	82.9085	4.12891
10.315	84.8557	4.19727
10.3211	87.80761	4.265625
10.326	91.5837	4.33398
10.3322	89.8487	4.40234
10.3372	91.0596	4.4707
10.3435	94.7535	4.53906
10.3486	97.6553	4.60742
10.3549	101.126	4.67578
10.3601	108.234	4.74414
10.3655	119.986	4.8125
10.3714	124.138	4.88086
10.3787	126.574	4.94922
10.3833	130.193	5.01758
10.3899	131.78	5.08594
10.3938	133.303	5.1543
10.4004	132.927	5.22266
10.4057	136.439	5.29102
10.41085	137.595	5.359375
10.4167	145.159	5.42773
10.42309	155.374	5.49609
10.42799	159.244	5.56445
10.4347	165.463	5.63281
10.44063	171.34	5.70117
10.4453	170.617	5.76953
10.4518	174.044	5.83789
10.4578	174.569	5.90625
10.4632	175.145	5.97461
10.4686	177.912	6.04297
10.4747	183.415	6.11133
10.481	191.968	6.17969
10.4853	197.547	6.24805
10.4916	203.905	6.31641
10.4976	211.167	6.38477
10.503	211.863	6.453125
10.5079	213.241	6.52148
10.5156	215.356	6.58984
10.5207	214.602	6.6582
10.5251	213.495	6.72656
10.53146	216.984	6.79492
10.5363	226.884	6.86328
10.5425	232.022	6.93164
10.548	238.933	7
10.55402	248.413	7.06836
10.5593	251.772	7.13672
10.5643	252.127	7.20508
10.5714	256.2	7.27344
10.5772	257.439	7.3418
10.5826	254.545	7.41016
10.5879	256.313	7.47852
10.5941	263.973	7.546875
10.5997	270.135	7.61523
10.6057	274.703	7.68359
10.6108	285.535	7.75195
10.6166	291.1127	7.82031
10.6215	293.734	7.88867
10.6283	295.815	7.95703
10.63349	298.201	8.02539
10.6396	295.007	8.09375
10.6464	292.993	8.16211
10.6513	298.68	8.23047
10.6561	307.587	8.29883
10.6625	310.277	8.36719
10.6682	319.514	8.43555
10.6727	327.0155	8.50391
10.6791	333.835	8.57227
10.685	336.5	8.640625
10.6909	338.8	8.70898
10.6963	336.354	8.77734
10.7018	333.857	8.8457
10.7068	336.051	8.91406
10.713	342.515	8.98242
10.7197	345.9834	9.05078
10.7259	354.509	9.11914
10.7298	363.125	9.1875
10.7371	368.681	9.25586
10.7422	376.163	9.32422
10.748	376.632	9.39258
10.7535	375.36	9.46094
10.759	373.317	9.5293
10.765	375.6918	9.59766
10.7712	378.987	9.66602
10.7759	380.247	9.734375
10.7816	389.345	9.80273
10.7885	399.1839	9.87109
10.7931	405.482	9.93945
10.7987	412.115	10.0078
10.8042	417.035	10.0762
10.8106	417.735	10.1445
10.8163	412.158	10.2129
10.8214	414.082	10.28125
10.8273	419.827	10.3496
10.8336	416.6033	10.418
10.83993	423.786	10.4863
10.8442	433.547	10.5547
10.8504	438.62	10.623
10.8561	446.981	10.6914
10.861	455.081	10.7598
10.8673	457.995	10.8281
10.8733	454.073	10.8965
10.8795	453.061	10.9648
10.8841	457.419	11.0332
10.8899	456.4642	11.1016
10.8964	457.562	11.1699
10.90048	466.5459	11.2383
10.9068	474.584	11.3066
10.9128	481.293	11.375
10.9195	489.849	11.4434
10.92347	495.363	11.5117
10.9304	493.725	11.5801
10.9361	492.606	11.6484
10.9419	496.0246	11.7168
10.9464	495.54	11.7852
10.9525	494.895	11.8535
10.9581	500.804	11.9219
10.9637	508.263	11.9902
10.9694	517.296	12.0586
10.9754	524.071	12.127
10.9806	532.392	12.1953
10.986	531.083	12.2637
10.993	531.397	12.332
10.9977	532.503	12.4004
11.0037	531.831	12.46875
11.0095	531.876	12.5371
11.0151	533.909	12.6055
11.021	540.964	12.6738
11.0263	546.25	12.7422
11.0322	558.547	12.8105
11.0376	563.7215	12.8789
11.0442	566.194	12.9473
11.0505	568.762	13.0156
11.0549	571.5011	13.084
11.061	569.473	13.1523
11.0672	569.607	13.2207
11.0722	571.002	13.2891
11.0767	574.14	13.3574
11.0826	579.648	13.4258
11.08913	589.636	13.4941
11.0951	597.339	13.5625
11.1015	601.334	13.6309
11.1064	602.956	13.6992
11.1123	608.453	13.7676
11.11764	607.319	13.8359
11.12285	604.467	13.9043
11.1294	605.648	13.9727
11.1341	609.1131	14.041
11.1408	611.45	14.1094
11.1456	619.534	14.1777
11.1508	629.5	14.2461
11.1583	633.876	14.3145
11.163	636.053	14.3828
11.16808	642.619	14.4512
11.1746	646.1358	14.5195
11.1805	641.788	14.5879
11.1856	640.855	14.65625
11.191	643.873	14.7246
11.1984	645.802	14.793
11.2043	650.623	14.8613
11.209	659.398	14.9297
11.2149	666.43	14.998
11.2206	670.215	15.0664
11.22541	673.807	15.1348
11.231	680.414	15.2031
11.2373	680.3714	15.2715
11.2439	678.239	15.3398
11.2483	677.803	15.4082
11.2531	678.924	15.4766
11.2595	683.176	15.5449
11.2661	689.138	15.6133
11.2702	696.284	15.6816
11.2772	701.768	15.75
11.2829	708.036	15.8184
11.2882	713.593	15.8867
11.2954	716.555	15.9551
11.3005	714.86	16.0234
11.3066	713.366	16.0918
11.312	711.526	16.1602
11.31647	715.221	16.2285
11.32202	721.1	16.2969
11.3286	725.047	16.3652
11.3341	731.631	16.4336
11.3392	737.545	16.502
11.3457	745.739	16.5703
11.3517	747.31	16.6387
11.3572	746.499	16.707
11.3622	746.403	16.7754
11.36843	746.823	16.84375
11.37396	746.459	16.9121
11.3792	750.648	16.9805
11.3855	757.648	17.0488
11.3909	758.9422	17.1172
11.3972	763.82	17.1855
11.4026	775.754	17.2539
11.409	780.203	17.3223
11.4146	779.94	17.3906
11.4197	780.974	17.459
11.42615	781.006	17.5273
11.4307	779.196	17.5957
11.43645	780.13	17.6641
11.4423	785.475	17.7324
11.4483	788.1181	17.8008
11.4541	794.267	17.8691
11.4599	800.8866	17.9375
11.4651	810.725	18.0059
11.4701	811.462	18.0742
11.4757	812.62	18.1426
11.4819	814.071	18.2109
11.48676	811.456	18.2793
11.4942	810.943	18.3477
11.4988	813.213	18.416
11.5046	816.365	18.4844
11.5112	818.138	18.5527
11.5162	826.195	18.6211
11.5223	836.312	18.6895
11.5279	841.286	18.7578
11.5329	842.032	18.8262
11.5388	842.939	18.8945
11.5452	843.083	18.9629
11.5501	841.857	19.03125
11.55718	841.754	19.0996
11.5615	843.879	19.168
11.5679	846.374	19.2363
11.5732	854.057	19.3047
11.5778	862.2865	19.373
11.584	865.707	19.4414
11.5893	871.218	19.5098
11.5968	872.309	19.5781
11.6016	872.131	19.6465
11.6075	872.096	19.7148
11.6123	871.776	19.7832
11.619	869.427	19.8516
11.6233	872.24	19.9199
11.6298	876.527	19.9883
11.6327	890.237	20.0176

Data Header:			0.254_solid_dimension_typei_090_r0			Time:	40.0225	s	4/15/2019 2:36:43 PM
Data Acquisition:	Timed
Station Name:	ft40.cfg
Test File Name:	monotonic_0.2540_typei_solid_090_dimension.tst
Displacement	Force	Running Time
mm	N	s
11.6322	881.375	20.0273
11.6388	881.212	20.0957
11.6461	881.935	20.1641
11.6502	885.068	20.2324
11.656	889.4267	20.3008
11.6617	895.813	20.3691
11.6677	899.154	20.4375
11.6726	904.919	20.5059
11.6775	909.873	20.5742
11.6851	910.2984	20.6426
11.6904	908.996	20.7109
11.6965	907.346	20.7793
11.7018	904.18	20.8477
11.70723	908.488	20.916
11.7129	911.8634	20.9844
11.7188	914.608	21.0527
11.7255	917.363	21.1211
11.7304	924.873	21.1895
11.736	931.029	21.2578
11.7418	930.784	21.3262
11.7469	931.211	21.3945
11.7528	930.0083	21.4629
11.7589	926.153	21.53125
11.7643	927.832	21.5996
11.7697	930.449	21.668
11.775	932.945	21.7363
11.782	934.069	21.8047
11.7879	941.2948	21.873
11.7924	947.702	21.9414
11.7987	948.699	22.0098
11.80353	948.444	22.0781
11.8107	951.152	22.1465
11.8147	946.542	22.2148
11.8215	944.18	22.2832
11.8274	946.619	22.3516
11.8327	947.336	22.4199
11.8388	946.6225	22.4883
11.843	952.888	22.5566
11.8498	960.974	22.625
11.8562	964.921	22.6934
11.8616	963.907	22.7617
11.867	964.607	22.8301
11.8729	963.285	22.8984
11.879	958.533	22.9668
11.8847	957.634	23.0352
11.8889	960.379	23.1035
11.8956	959.686	23.1719
11.9016	959.487	23.2402
11.9072	968.979	23.3086
11.9136	972.147	23.377
11.9186	973.163	23.4453
11.9238	973.359	23.5137
11.9295	973.537	23.582
11.9354	969.7348	23.6504
11.9407	967.969	23.71875
11.9472	965.544	23.7871
11.9519	964.335	23.8555
11.958	964.899	23.9238
11.96301	968.036	23.9922
11.9696	975.205	24.0605
11.9748	976.397	24.1289
11.9811	978.347	24.1973
11.9854	978.059	24.2656
11.9919	975.744	24.334
11.9963	973.73	24.4023
12.0031	968.636	24.4707
12.0098	965.239	24.5391
12.01488	965.074	24.6074
12.0202	967.51	24.6758
12.0265	973.271	24.7441
12.0315	974.166	24.8125
12.0374	978.08	24.8809
12.044	978.0899	24.9492
12.0492	973.97	25.0176
12.0546	974.207	25.0859
12.0608	970.648	25.1543
12.0664	964.9707	25.2227
12.0732	960.703	25.291
12.0772	964.4646	25.3594
12.0837	968.026	25.4277
12.0894	969.114	25.4961
12.094	972.697	25.5645
12.1013	974.865	25.6328
12.1071	972.133	25.7012
12.1124	970.511	25.7695
12.1185	969.188	25.8379
12.1232	963.701	25.90625
12.1286	956.3291	25.9746
12.1337	956.4613	26.043
12.14051	962.525	26.1113
12.146	961.8858	26.1797
12.1513	964.706	26.248
12.1585	969.043	26.3164
12.1635	968.796	26.3848
12.1681	967.028	26.4531
12.1749	965.097	26.5215
12.1806	960.655	26.5898
12.1855	953.203	26.6582
12.1915	949.181	26.7266
12.1974	953.483	26.7949
12.2033	956.7804	26.8633
12.2085	956.283	26.9316
12.2132	960.424	27
12.2199	963.2453	27.0684
12.226	963.435	27.1367
12.2325	960.541	27.2051
12.238	957.306	27.2734
12.2435	950.857	27.3418
12.2487	945.783	27.4102
12.2547	947.203	27.4785
12.2607	947.925	27.5469
12.2655	949.128	27.6152
12.2715	952.508	27.6836
12.2761	954.8269	27.752
12.2826	956.998	27.8203
12.2879	957.7934	27.8887
12.2938	954.274	27.957
12.3004	948.231	28.0254
12.3048	944.181	28.09375
12.3119	943.803	28.1621
12.3172	942.095	28.2305
12.3227	942.9375	28.2988
12.3297	946.31	28.3672
12.3337	947.4057	28.4355
12.3398	951.7	28.5039
12.3467	954.502	28.5723
12.3508	954.2132	28.6406
12.3568	946.879	28.709
12.3622	941.134	28.7773
12.36788	941.729	28.8457
12.3739	939.448	28.9141
12.3794	936.048	28.9824
12.3856	940.778	29.0508
12.3901	944.602	29.1191
12.3972	946.856	29.1875
12.40264	949.921	29.2559
12.4078	951.214	29.3242
12.4142	947.534	29.3926
12.4193	938.793	29.4609
12.4254	939.049	29.5293
12.4305	939.346	29.5977
12.4366	934.164	29.666
12.4417	937.332	29.7344
12.4469	941.741	29.8027
12.4534	940.566	29.8711
12.459	946.245	29.9395
12.4661	949.052	30.0078
12.4709	945.815	30.0762
12.477	940.293	30.1445
12.482	938.537	30.2129
12.4882	938.788	30.28125
12.4943	934.444	30.3496
12.4986	931.131	30.418
12.5039	935.356	30.4863
12.5113	937.216	30.5547
12.5156	941.736	30.623
12.52233	943.424	30.6914
12.5278	945.014	30.7598
12.5343	940.18	30.8281
12.5397	938.851	30.8965
12.5452	936.876	30.9648
12.5509	933.242	31.0332
12.5566	932.862	31.1016
12.562	931.7074	31.1699
12.5685	932.4278	31.2383
12.5724	938.2	31.3066
12.5786	941.995	31.375
12.5847	942.023	31.4434
12.5911	940.863	31.5117
12.5951	941.302	31.5801
12.6016	939.065	31.6484
12.6075	934.108	31.7168
12.6129	930.76	31.7852
12.6194	931.939	31.8535
12.623	929.813	31.9219
12.6313	933.619	31.9902
12.6364	938.1	32.0586
12.6415	941.963	32.127
12.6479	937.226	32.1953
12.6539	937.788	32.2637
12.6583	941.146	32.332
12.66511	934.4433	32.4004
12.6698	930	32.46875
12.6769	930.326	32.5371
12.6807	928.474	32.6055
12.6868	931.366	32.6738
12.6926	935.064	32.7422
12.6987	939.509	32.8105
12.7044	938.4436	32.8789
12.7096	937.36	32.9473
12.7152	940.2453	33.0156
12.7215	938.86	33.084
12.72606	930.101	33.1523
12.7312	929.762	33.2207
12.7394	929.343	33.2891
12.7453	927.257	33.3574
12.7488	930.146	33.4258
12.756	934.514	33.4941
12.7611	935.61	33.5625
12.7669	935.684	33.6309
12.7725	939.7757	33.6992
12.7782	938.374	33.7676
12.7833	932.078	33.8359
12.7895	928.531	33.9043
12.7952	927.277	33.9727
12.8023	928.073	34.041
12.8072	928.422	34.1094
12.8135	931.849	34.1777
12.8187	933.845	34.2461
12.8243	933.683	34.3145
12.829	937.687	34.3828
12.8356	937.36	34.4512
12.8405	935.078	34.5195
12.8466	929.936	34.5879
12.8536	928.283	34.65625
12.8592	926.415	34.7246
12.8642	927.961	34.793
12.86974	929.552	34.8613
12.8742	928.383	34.9297
12.8807	931.709	34.998
12.887	935.549	35.0664
12.8923	937.802	35.1348
12.8984	934.073	35.2031
12.9033	933.392	35.2715
12.9099	930.299	35.3398
12.9148	924.669	35.4082
12.9217	925.507	35.4766
12.9267	928.8736	35.5449
12.9321	928.324	35.6133
12.9372	928.444	35.6816
12.94381	932.081	35.75
12.9494	937.777	35.8184
12.9545	935.331	35.8867
12.9602	934.213	35.9551
12.966	933.809	36.0234
12.9723	926.202	36.0918
12.9786	926.182	36.1602
12.9842	926.541	36.2285
12.99037	925.438	36.2969
12.9951	925.231	36.3652
13.0005	928.3786	36.4336
13.00705	935.805	36.502
13.01161	934.953	36.5703
13.0177	931.885	36.6387
13.0231	933.609	36.707
13.03	930.117	36.7754
13.0341	926.18	36.84375
13.0407	925.063	36.9121
13.0459	924.486	36.9805
13.0521	923.354	37.0488
13.0586	923.276	37.1172
13.0629	931.491	37.1855
13.0689	933.937	37.2539
13.0736	933.104	37.3223
13.0803	932.934	37.3906
13.086	930.206	37.459
13.0917	927.717	37.5273
13.0974	923.948	37.5957
13.1043	921.92	37.6641
13.1093	919.932	37.7324
13.1147	921.489	37.8008
13.1204	926.9845	37.8691
13.1254	929.998	37.9375
13.1318	931.323	38.0059
13.1372	931.901	38.0742
13.1427	929.1153	38.1426
13.1485	927.72	38.2109
13.1535	924.4729	38.2793
13.1606	920.8089	38.3477
13.1643	916.604	38.416
13.172	916.7	38.4844
13.1774	921.898	38.5527
13.18286	923.459	38.6211
13.1899	925.79	38.6895
13.1937	929.707	38.7578
13.2002	926.869	38.8262
13.2059	923.858	38.8945
13.2119	921.294	38.9629
13.2169	639.241	39.03125
13.2246	-51.6127	39.0996
13.2299	-51.2166	39.168
13.2353	-45.686	39.2363
13.2409	-41.8461	39.3047
13.2469	-41.8847	39.373
13.2517	-37.0892	39.4414
13.2577	-34.8076	39.5098
13.2634	-38.3352	39.5781
13.2687	-39.6127	39.6465
13.2746	-40.474	39.7148
13.2802	-46.0548	39.7832
13.2866	-51.79932	39.8516
13.2918	-48.9696	39.9199
13.297	-43.8047	39.9883
13.2989	-39.3854	40.0176

Data Header:			0.254_solid_dimension_typei_090_r0			Time:	40.4089	s	4/15/2019 2:36:43 PM
Data Acquisition:	Timed
Station Name:	ft40.cfg
Test File Name:	monotonic_0.2540_typei_solid_090_dimension.tst
Displacement	Force	Running Time
mm	N	s
13.3001	-43.7826	40.0273
13.3008	-47.2817	40.0371
13.3022	-47.3196	40.0469
13.3027	-44.5168	40.0566
13.3043	-36.8627	40.0664
13.3039	-36.8187	40.0762
13.3062	-40.8263	40.0859
13.30647	-45.2035	40.0957
13.3075	-47.4467	40.1055
13.3083	-41.4584	40.1152
13.30985	-39.7018	40.125
13.3098	-39.0357	40.1348
13.3094	-40.1208	40.1445
13.3113	-42.4838	40.1543
13.3122	-45.2513	40.1641
13.3124	-47.6411	40.1738
13.3133	-42.0553	40.1836
13.3136	-35.7993	40.1934
13.3154	-39.8676	40.2031
13.3154	-40.3361	40.2129
13.31669	-47.8194	40.2227
13.3188	-43.38406	40.2324
13.3185	-41.8374	40.2422
13.3191	-42.56736	40.252
13.3205	-38.3733	40.2617
13.3198	-38.3424	40.2715
13.3223	-43.92	40.28125
13.323	-47.752	40.291
13.323	-48.04	40.3008
13.32372	-39.7799	40.3105
13.3254	-36.5693	40.3203
13.3259	-37.86293	40.3301
13.32603	-43.2183	40.3398
13.327	-48.3448	40.3496
13.3279	-47.02235	40.3594
13.3295	-45.48402	40.3691
13.3289	-38.7456	40.3789
13.331	-35.0413	40.3887
13.3322	-40.8393	40.3984