File: data/processed_data_files/tensile/0.254_hd_dimension_typeiv_090_r(2).dat
MTS793|BTW|ENU|1|2|.|/|:|1|0|0|A

Data Header:			0.254_hd_dimension_typeiv_090_r0			Time:	20.0215	s	4/14/2019 12:28:08 AM
Data Acquisition:	Timed
Station Name:	ft40.cfg
Test File Name:	monotonic_0.2540_typeiv_hd_090_dimension.tst
Displacement	Force	Running Time
mm	N	s
-40.04105	-145.1647	0.0231934
-40.0405	-143.585	0.0915527
-40.0346	-140.456	0.159912
-40.0287	-135.544	0.228271
-40.0235	-127.983	0.296631
-40.0177	-125.393	0.36499
-40.0124	-124.011	0.43335
-40.0062	-120.43	0.501709
-40.0007	-115.154	0.570068
-39.9942	-113.445	0.638428
-39.989	-112.099	0.706787
-39.9841	-109.922	0.775146
-39.9773	-107.558	0.843506
-39.9724	-101.8127	0.911865
-39.9666	-95.3676	0.980225
-39.9608	-93.0929	1.048584
-39.9558	-89.1072	1.11694
-39.9496	-84.6418	1.1853
-39.9438	-80.4091	1.25366
-39.9381	-78.5311	1.32202
-39.93108	-76.2359	1.39038
-39.9258	-74.41291	1.45874
-39.9212	-71.976	1.5271
-39.9151	-67.1697	1.595459
-39.9089	-62.2528	1.66382
-39.9044	-61.2681	1.73218
-39.8982	-55.14621	1.80054
-39.8925	-49.0481	1.8689
-39.8868	-45.741	1.93726
-39.8812	-44.1163	2.00562
-39.8758	-40.34866	2.07397
-39.8715	-40.8469	2.142334
-39.86372	-37.88007	2.21069
-39.8578	-33.119	2.27905
-39.8533	-30.388	2.34741
-39.8471	-29.6425	2.41577
-39.841	-23.7725	2.48413
-39.8361	-15.3572	2.55249
-39.8291	-12.5543	2.62085
-39.8244	-9.6268	2.689209
-39.8186	-6.61344	2.75757
-39.81216	-5.67049	2.82593
-39.8068	-4.04659	2.89429
-39.8007	0.486033	2.96265
-39.7966	1.86402	3.03101
-39.7902	3.46205	3.09937
-39.7841	9.43888	3.16772
-39.7789	17.8384	3.236084
-39.7732	20.3351	3.30444
-39.7678	25.0361	3.3728
-39.7609	29.0871	3.44116
-39.7566	28.0513	3.50952
-39.75	28.7877	3.57788
-39.7449	33.7739	3.64624
-39.7387	35.9707	3.7146
-39.7323	34.463	3.782959
-39.7277	42.1379	3.85132
-39.7229	52.5884	3.91968
-39.7165	54.2201	3.98804
-39.7099	56.836	4.0564
-39.7062	63.0985	4.12476
-39.6992	62.73214	4.19312
-39.6934	66.5378	4.26147
-39.6876	68.1968	4.329834
-39.6819	67.5816	4.39819
-39.6764	69.1902	4.46655
-39.67141	77.0941	4.53491
-39.6656	82.9249	4.60327
-39.6578	85.5303	4.67163
-39.6534	89.6462	4.73999
-39.6481	97.1144	4.80835
-39.6408	98.95694	4.876709
-39.6373	100.831	4.94507
-39.6309	103.1041	5.01343
-39.6245	101.625	5.08179
-39.6206	101.907	5.15015
-39.6139	110.409	5.21851
-39.60807	114.4892	5.28687
-39.60247	118.232	5.35522
-39.5973	124.623	5.423584
-39.5918	129.406	5.49194
-39.5858	130.605	5.5603
-39.5795	134.188	5.62866
-39.5739	137.193	5.69702
-39.5685	134.597	5.76538
-39.56242	136.145	5.83374
-39.5559	142.329	5.9021
-39.551	144.7765	5.970459
-39.5455	149.559	6.03882
-39.53994	154.8333	6.10718
-39.5345	158.617	6.17554
-39.528	164.699	6.2439
-39.5241	166.897	6.31226
-39.5172	168.634	6.38062
-39.5117	167.3672	6.44897
-39.5052	170.193	6.517334
-39.5001	174.108	6.58569
-39.495	176.42	6.65405
-39.4891	179.45	6.72241
-39.4833	186.393	6.79077
-39.4772	191.0551	6.85913
-39.4715	195.617	6.92749
-39.4666	199.457	6.99585
-39.46027	200.8	7.064209
-39.455	201.782	7.13257
-39.4485	204.283	7.20093
-39.4433	207.53	7.26929
-39.43681	208.136	7.33765
-39.4324	211.488	7.40601
-39.426	216.3867	7.47437
-39.4197	221.562	7.54272
-39.4149	228.711	7.611084
-39.4083	231.124	7.67944
-39.404	231.4868	7.7478
-39.398	233.743	7.81616
-39.3906	238.764	7.88452
-39.3856	238.293	7.95288
-39.3802	240.549	8.02124
-39.3755	244.565	8.0896
-39.3687	245.424	8.157959
-39.3625	252.326	8.22632
-39.3574	256.762	8.29468
-39.3517	260.259	8.36304
-39.34631	260.726	8.4314
-39.3402	266.866	8.49976
-39.3342	270.706	8.56812
-39.3296	269.541	8.63647
-39.3232	271.3811	8.704834
-39.3174	274.66	8.77319
-39.31192	274.216	8.84155
-39.3048	280.709	8.90991
-39.301	284.782	8.97827
-39.2942	287.571	9.04663
-39.2886	289.208	9.11499
-39.2826	295.03	9.18335
-39.2767	299.977	9.251709
-39.2714	299.604	9.32007
-39.2663	302.3764	9.38843
-39.2612	304.428	9.45679
-39.2539	303.185	9.52515
-39.2486	307.901	9.59351
-39.2438	312.8421	9.66187
-39.2382	314.51	9.73022
-39.2318	316.736	9.798584
-39.226	326.789	9.86694
-39.2206	327.684	9.9353
-39.2143	328.7236	10.0037
-39.2093	330.958	10.072
-39.2037	332.109	10.1404
-39.1971	333.113	10.20874
-39.1921	336.954	10.2771
-39.1861	340.0513	10.3455
-39.1818	338.439	10.4138
-39.1748	343.151	10.4822
-39.1684	352.388	10.5505
-39.1638	356.22	10.6189
-39.1586	356.8913	10.6873
-39.1526	361.145	10.7556
-39.1465	360.992	10.824
-39.1408	360.91	10.8923
-39.1355	362.85	10.9607
-39.1305	364.325	11.0291
-39.1227	361.842	11.0974
-39.11858	369.351	11.1658
-39.1128	378.801	11.2341
-39.1065	379.485	11.30249
-39.1013	382.167	11.37085
-39.0957	385.8699	11.4392
-39.0909	387.197	11.5076
-39.0837	387.378	11.5759
-39.0786	388.9	11.6443
-39.0731	388.58	11.7126
-39.0672	387.572	11.781
-39.0627	392.236	11.8494
-39.0558	399.9017	11.9177
-39.0495	403.4881	11.9861
-39.0445	405.618	12.0544
-39.038	409.159	12.1228
-39.0326	410.771	12.1912
-39.0277	409.6	12.2595
-39.0214	410.425	12.3279
-39.0162	408.858	12.39624
-39.0111	409.018	12.4646
-39.00457	412.983	12.533
-38.99786	417.7941	12.6013
-38.9937	419.689	12.6697
-38.9883	423.292	12.738
-38.9827	426.736	12.8064
-38.975	428.66	12.8748
-38.97073	428.781	12.9431
-38.9646	427.55	13.0115
-38.9587	424.945	13.0798
-38.95335	425.006	13.1482
-38.9483	428.417	13.2166
-38.9425	432.657	13.2849
-38.93631	433.903	13.3533
-38.93008	435.995	13.4216
-38.9249	439.098	13.48999
-38.9176	442.918	13.55835
-38.9121	440.881	13.6267
-38.9081	439.606	13.6951
-38.9002	438.872	13.7634
-38.8953	437.902	13.8318
-38.8902	439.576	13.9001
-38.8834	439.384	13.9685
-38.87841	442.0065	14.0369
-38.8728	443.949	14.1052
-38.8676	445.1842	14.1736
-38.8615	450.38	14.2419
-38.8555	450.062	14.3103
-38.8498	447.186	14.3787
-38.8445	444.6	14.447
-38.8388	445.574	14.5154
-38.8332	444.112	14.58374
-38.828	443.038	14.6521
-38.8233	443.793	14.7205
-38.8169	445.469	14.7888
-38.811	446.8996	14.8572
-38.8051	450.902	14.9255
-38.79858	449.868	14.9939
-38.7937	446.05	15.0623
-38.7872	446.643	15.1306
-38.7814	449.668	15.199
-38.7771	443.469	15.2673
-38.7708	442.51	15.3357
-38.7652	443.456	15.4041
-38.759	442.789	15.4724
-38.753	444.467	15.5408
-38.7474	447.805	15.6091
-38.7422	446.294	15.67749
-38.737	442.9613	15.74585
-38.7309	443.304	15.8142
-38.7249	447.062	15.8826
-38.7198	439.513	15.9509
-38.7142	438.112	16.0193
-38.7076	438.6868	16.0876
-38.7025	437.392	16.156
-38.6973	438.3779	16.2244
-38.6908	441.601	16.2927
-38.68462	441.647	16.3611
-38.67942	438.8877	16.4294
-38.6732	441.176	16.4978
-38.668	443.531	16.5662
-38.6631	437.121	16.6345
-38.657	436.1	16.7029
-38.6514	434.852	16.77124
-38.6441	433.346	16.8396
-38.6396	431.174	16.908
-38.6344	437.421	16.9763
-38.628	434.886	17.0447
-38.6233	434.141	17.113
-38.6179	437.564	17.1814
-38.6113	438.697	17.2498
-38.6058	436.291	17.3181
-38.6009	433.5397	17.3865
-38.5948	432.605	17.4548
-38.5889	429.883	17.5232
-38.5831	429.585	17.5916
-38.5766	431.815	17.6599
-38.5721	427.3623	17.7283
-38.56451	428.952	17.7966
-38.5591	435.6713	17.86499
-38.5545	434.932	17.93335
-38.5491	432.995	18.0017
-38.5443	432.594	18.0701
-38.5383	431.421	18.1384
-38.5318	429.691	18.2068
-38.5254	426.9343	18.2751
-38.5196	428.464	18.3435
-38.5146	425.0513	18.4119
-38.5092	427.436	18.4802
-38.5037	431.693	18.5486
-38.4967	433.831	18.6169
-38.4918	432.3302	18.6853
-38.48637	432.249	18.7537
-38.4798	429.36	18.822
-38.4747	428.915	18.8904
-38.4687	427.43	18.95874
-38.4632	426.023	19.0271
-38.4574	424.124	19.0955
-38.4522	424.887	19.1638
-38.4456	431.669	19.2322
-38.44	430.001	19.3005
-38.4344	432.895	19.3689
-38.4293	431.567	19.4373
-38.42247	429.855	19.5056
-38.4169	430.388	19.574
-38.4117	426.809	19.6423
-38.4072	423.515	19.7107
-38.401	423.781	19.7791
-38.3942	425.857	19.8474
-38.3886	426.28	19.9158
-38.3837	428.304	19.9841
-38.3815	426.992	20.0134

Data Header:			0.254_hd_dimension_typeiv_090_r0			Time:	32.2192	s	4/14/2019 12:28:20 AM
Data Acquisition:	Timed
Station Name:	ft40.cfg
Test File Name:	monotonic_0.2540_typeiv_hd_090_dimension.tst
Displacement	Force	Running Time
mm	N	s
-38.3805	425.05	20.0232
-38.3758	426.997	20.072
-38.3727	428.934	20.12085
-38.368	428.15	20.1697
-38.3639	424.772	20.2185
-38.3596	425.315	20.2673
-38.3559	429.387	20.3162
-38.35202	431.179	20.36499
-38.34877	425.841	20.4138
-38.3432	421.112	20.4626
-38.33989	424.327	20.5115
-38.336	428.452	20.5603
-38.3314	429.23	20.6091
-38.32711	425.271	20.658
-38.3229	422.875	20.7068
-38.3189	427.496	20.7556
-38.3152	428.007	20.8044
-38.3106	424.456	20.8533
-38.307	421.99	20.9021
-38.3027	425.195	20.9509
-38.2983	429.2666	20.9998
-38.294	428.589	21.0486
-38.2897	426.132	21.0974
-38.2879	421.851	21.14624
-38.2828	425.864	21.1951
-38.2782	428.4765	21.2439
-38.2744	426.379	21.2927
-38.2696	423.056	21.3416
-38.2664	425.416	21.3904
-38.2619	429.023	21.4392
-38.2585	426.198	21.488
-38.2546	424.01	21.5369
-38.2503	423.517	21.5857
-38.2458	426.386	21.6345
-38.2422	428.232	21.68335
-38.2381	427.385	21.7322
-38.2336	423.274	21.781
-38.2296	424.445	21.8298
-38.2255	425.31	21.8787
-38.222	426.114	21.92749
-38.21793	424.318	21.9763
-38.2134	423.6	22.0251
-38.2091	426.6474	22.074
-38.2052	428.896	22.1228
-38.20071	424.448	22.1716
-38.1968	420.804	22.2205
-38.1927	423.272	22.2693
-38.1887	426.555	22.3181
-38.1851	427.199	22.3669
-38.1807	423.311	22.4158
-38.1769	423.491	22.4646
-38.172	426.775	22.5134
-38.1696	427.763	22.5623
-38.1647	424.697	22.6111
-38.1606	421.014	22.6599
-38.1562	423.8634	22.70874
-38.1521	427.39	22.7576
-38.1478	428.305	22.8064
-38.1435	425.732	22.8552
-38.1407	420.494	22.9041
-38.1346	424.66	22.9529
-38.1309	428.241	23.0017
-38.128	426.013	23.0505
-38.124	421.102	23.0994
-38.1193	423.162	23.1482
-38.116	427.501	23.197
-38.1118	426.8	23.24585
-38.10696	422.9	23.2947
-38.10368	420.064	23.3435
-38.0998	424.94	23.3923
-38.0948	429.819	23.4412
-38.0918	429.452	23.48999
-38.0864	424.09	23.5388
-38.0834	421.116	23.5876
-38.0788	425.085	23.6365
-38.0752	428.2374	23.6853
-38.0705	425.366	23.7341
-38.0678	419.796	23.783
-38.0635	422.5545	23.8318
-38.0584	429.292	23.8806
-38.0542	427.714	23.9294
-38.0508	420.884	23.9783
-38.0474	419.077	24.0271
-38.0425	422.824	24.0759
-38.0386	429.752	24.1248
-38.03434	427.0336	24.1736
-38.0297	421.2774	24.2224
-38.0258	420.11	24.27124
-38.0218	424.34	24.3201
-38.0177	427.338	24.3689
-38.0129	422.772	24.4177
-38.0107	419.382	24.4666
-38.006	420.942	24.5154
-38.0018	426.55	24.5642
-37.998	426.939	24.613
-37.9935	419.471	24.6619
-37.98938	418.54	24.7107
-37.9852	423.206	24.7595
-37.9808	427.483	24.80835
-37.9767	424.819	24.8572
-37.9728	420.048	24.906
-37.9693	419.886	24.9548
-37.96529	422.209	25.0037
-37.9609	427.017	25.05249
-37.9577	422.197	25.1013
-37.9524	418.046	25.1501
-37.9489	421.4838	25.199
-37.9443	426.8905	25.2478
-37.9414	424.361	25.2966
-37.9377	418.763	25.3455
-37.9321	417.731	25.3943
-37.9283	422.875	25.4431
-37.9242	426.689	25.4919
-37.9204	422.762	25.5408
-37.9161	422.111	25.5896
-37.9128	422.321	25.6384
-37.90765	425.223	25.6873
-37.90387	423.811	25.7361
-37.8988	419.77	25.7849
-37.8971	418.973	25.83374
-37.8915	421.807	25.8826
-37.8879	425.349	25.9314
-37.8842	423.196	25.9802
-37.88	418.979	26.0291
-37.8742	419.524	26.0779
-37.8724	421.384	26.1267
-37.8668	424.268	26.1755
-37.8633	422.166	26.2244
-37.859	420.594	26.2732
-37.856	422.391	26.322
-37.8495	425.694	26.37085
-37.8461	420.768	26.4197
-37.84362	420.029	26.4685
-37.838	419.609	26.5173
-37.8349	423.646	26.5662
-37.8304	423.299	26.61499
-37.8267	421.552	26.6638
-37.8227	421.271	26.7126
-37.8183	421.284	26.7615
-37.8147	423.589	26.8103
-37.8111	420.508	26.8591
-37.8058	420.139	26.908
-37.802	420.834	26.9568
-37.7977	424.591	27.0056
-37.79427	425.682	27.0544
-37.7897	419.596	27.1033
-37.7869	418.929	27.1521
-37.7805	421.509	27.2009
-37.7781	423.106	27.2498
-37.7726	421.109	27.2986
-37.7712	417.834	27.3474
-37.7659	419.171	27.39624
-37.7607	422.055	27.4451
-37.7569	421.792	27.4939
-37.7535	418.934	27.5427
-37.7497	417.591	27.5916
-37.7454	422.02	27.6404
-37.7414	428.164	27.6892
-37.7368	425.061	27.738
-37.7326	417.247	27.7869
-37.7292	417.303	27.8357
-37.7252	421.03	27.8845
-37.7207	423.815	27.93335
-37.7164	419.417	27.9822
-37.7117	417.005	28.031
-37.7083	420.704	28.0798
-37.7048	423.206	28.1287
-37.701	422.114	28.17749
-37.6956	418.144	28.2263
-37.6923	416.991	28.2751
-37.6885	422.763	28.324
-37.68428	426.62	28.3728
-37.6793	422.707	28.4216
-37.6772	416.73	28.4705
-37.6722	417.16	28.5193
-37.6687	422.099	28.5681
-37.6641	422.037	28.6169
-37.6604	417.831	28.6658
-37.656	415.74	28.7146
-37.6515	419.148	28.7634
-37.6471	424.346	28.8123
-37.64349	421.269	28.8611
-37.6393	415.3992	28.9099
-37.63599	415.294	28.95874
-37.6312	421.517	29.0076
-37.6278	425.294	29.0564
-37.6227	419.586	29.1052
-37.6183	416.187	29.1541
-37.6147	416.863	29.2029
-37.6115	423.106	29.2517
-37.6067	422.763	29.3005
-37.6028	415.731	29.3494
-37.5985	414.726	29.3982
-37.5938	418.821	29.447
-37.5912	423.252	29.49585
-37.5871	419.391	29.5447
-37.581	414.064	29.5935
-37.57766	414.75	29.6423
-37.5737	422.32	29.6912
-37.5707	424.586	29.73999
-37.5668	419.201	29.7888
-37.5621	417.911	29.8376
-37.5586	418.551	29.8865
-37.5536	422.665	29.9353
-37.55043	419.647	29.9841
-37.5458	415.053	30.033
-37.542	414.693	30.0818
-37.5364	420.127	30.1306
-37.53397	422.133	30.1794
-37.52832	417.625	30.2283
-37.5249	413.157	30.2771
-37.5215	415.395	30.3259
-37.5165	420.292	30.3748
-37.5132	420.974	30.4236
-37.5097	417.244	30.4724
-37.5055	415.478	30.52124
-37.5014	420.724	30.5701
-37.4959	420.527	30.6189
-37.4916	418.997	30.6677
-37.489	415.245	30.7166
-37.4841	414.845	30.7654
-37.4806	418.683	30.8142
-37.4759	419.124	30.863
-37.4731	414.245	30.9119
-37.4673	411.883	30.9607
-37.4645	413.503	31.0095
-37.4611	417.872	31.05835
-37.4563	417.699	31.1072
-37.4523	414.841	31.156
-37.4479	415.676	31.2048
-37.4447	418.93	31.2537
-37.44	417.955	31.30249
-37.43726	413.546	31.3513
-37.4323	411.669	31.4001
-37.42786	413.683	31.449
-37.4241	416.266	31.4978
-37.4202	411.753	31.5466
-37.4158	407.171	31.5955
-37.4076	-129.29	31.6443
-37.4046	-44.4658	31.6931
-37.4023	-37.64024	31.7419
-37.3983	-40.3039	31.7908
-37.3958	-39.9704	31.8396
-37.3912	-37.5028	31.8884
-37.3874	-33.4422	31.9373
-37.3828	-38.7556	31.9861
-37.3785	-42.0698	32.0349
-37.3758	-40.5309	32.08374
-37.37059	-38.3397	32.1326
-37.3663	-36.6045	32.1814
-37.3654	-41.8785	32.2107