File: data/processed_data_files/tensile/0.254_hd_uprint_typeiv_090_r(8).dat
MTS793|BTW|ENU|1|2|.|/|:|1|0|0|A

Data Header:			0.254_hd_uprint_typeiv_090_r0			Time:	20.0183	s	4/13/2019 11:14:08 PM
Data Acquisition:	Timed
Station Name:	ft40.cfg
Test File Name:	monotonic_0.2540_typeiv_solid_4545_uprint.tst
Displacement	Force	Running Time
mm	N	s
-40.043	-142.978	0.0227051
-40.041	-142.874	0.0910645
-40.0353	-142.22	0.159424
-40.0297	-137.701	0.2277832
-40.0239	-133.691	0.296143
-40.0182	-128.078	0.364502
-40.0125	-127.472	0.432861
-40.0064	-120.4257	0.5012207
-40.0004	-115.553	0.56958
-39.9955	-111.852	0.637939
-39.9906	-108.99	0.706299
-39.9829	-107.315	0.7746582
-39.9796	-107.554	0.843018
-39.9724	-105.148	0.911377
-39.9669	-100.636	0.979736
-39.9615	-97.23111	1.0481
-39.9537	-94.5306	1.11646
-39.95	-90.075	1.18481
-39.9435	-79.2801	1.25317
-39.9385	-79.9913	1.32153
-39.9328	-75.2194	1.38989
-39.927	-73.3157	1.458252
-39.9218	-71.9271	1.52661
-39.9156	-71.0955	1.59497
-39.9099	-65.5743	1.66333
-39.90517	-63.9093	1.73169
-39.8987	-62.8699	1.80005
-39.8932	-55.4855	1.86841
-39.88763	-47.3496	1.93677
-39.88192	-47.2672	2.005127
-39.8758	-44.2726	2.07349
-39.8701	-38.7696	2.14185
-39.8637	-39.2325	2.21021
-39.8589	-37.7857	2.27856
-39.85281	-32.4987	2.34692
-39.8475	-32.4739	2.41528
-39.8407	-33.0158	2.48364
-39.8353	-27.0541	2.552002
-39.8304	-17.57262	2.62036
-39.8242	-17.0112	2.68872
-39.819	-11.6148	2.75708
-39.812	-9.20545	2.82544
-39.8075	-6.68734	2.8938
-39.8023	-4.30325	2.96216
-39.7966	-0.0862019	3.03052
-39.7899	-1.23081	3.098877
-39.7842	0.08372245	3.16724
-39.7798	8.55047	3.2356
-39.7722	11.6965	3.30396
-39.76754	14.7568	3.37231
-39.7621	20.4263	3.44067
-39.75544	26.8711	3.50903
-39.7504	26.1712	3.57739
-39.7447	29.599	3.645752
-39.739	32.8547	3.71411
-39.7336	31.3887	3.78247
-39.7267	31.8201	3.85083
-39.7216	39.7186	3.91919
-39.7161	40.8133	3.98755
-39.7104	45.2852	4.05591
-39.7048	51.7572	4.12427
-39.6992	55.8774	4.192627
-39.6925	60.1547	4.26099
-39.6883	62.13813	4.32935
-39.6822	65.0089	4.39771
-39.6773	62.8116	4.46606
-39.67046	65.5084	4.53442
-39.6646	71.1423	4.60278
-39.6593	73.80378	4.67114
-39.6541	75.6986	4.739502
-39.6489	82.7976	4.80786
-39.641	85.1874	4.87622
-39.6374	92.9606	4.94458
-39.6317	95.2935	5.01294
-39.6248	96.6348	5.0813
-39.62	94.452	5.14966
-39.613	98.9165	5.21802
-39.609	101.73	5.286377
-39.6025	102.701	5.35474
-39.5967	108.331	5.4231
-39.5913	112.851	5.49146
-39.5858	117.914	5.55981
-39.5794	124.5399	5.62817
-39.5739	126.4513	5.69653
-39.5687	128.952	5.76489
-39.5625	127.858	5.833252
-39.557	132.892	5.90161
-39.5519	134.3168	5.96997
-39.5454	135.95	6.03833
-39.5394	138.55	6.10669
-39.5344	141.25	6.17505
-39.52914	146.692	6.24341
-39.5218	153.013	6.31177
-39.5159	155.246	6.380127
-39.5112	158.5332	6.44849
-39.5061	161.457	6.51685
-39.4998	165.661	6.58521
-39.494	165.825	6.65356
-39.4878	164.592	6.72192
-39.4825	170.523	6.79028
-39.4778	170.958	6.85864
-39.4715	178.019	6.927002
-39.4665	182.067	6.99536
-39.4598	184.27	7.06372
-39.4551	187.34	7.13208
-39.4487	193.377	7.20044
-39.4435	196.067	7.2688
-39.4365	195.793	7.33716
-39.4315	198.456	7.40552
-39.4262	200.504	7.473877
-39.4212	200.609	7.54224
-39.4148	207.393	7.6106
-39.4089	213.0863	7.67896
-39.4034	213.949	7.74731
-39.3979	217.845	7.81567
-39.3931	223.5724	7.88403
-39.3865	228.525	7.95239
-39.3789	224.371	8.020752
-39.3749	231.645	8.08911
-39.3688	232.11	8.15747
-39.364	231.379	8.22583
-39.3575	235.161	8.29419
-39.352	241.131	8.36255
-39.34621	240.98	8.43091
-39.3405	245.02	8.49927
-39.3338	254.208	8.567627
-39.3288	255.907	8.63599
-39.3237	256.5	8.70435
-39.3169	259.092	8.77271
-39.31184	260.662	8.84106
-39.3062	261.395	8.90942
-39.3007	264.736	8.97778
-39.2947	267.88	9.04614
-39.2896	268.385	9.114502
-39.2831	272.355	9.18286
-39.2777	283.488	9.25122
-39.2713	284.668	9.31958
-39.2669	284.89	9.38794
-39.2602	289.2616	9.4563
-39.2557	290.0816	9.52466
-39.25	291.263	9.59302
-39.2436	293.8443	9.661377
-39.238	296.256	9.72974
-39.2329	294.293	9.7981
-39.22588	299.323	9.86646
-39.2201	307.25	9.93481
-39.2156	310.498	10.0032
-39.2095	313.247	10.0715
-39.2041	317.321	10.1399
-39.198	316.824	10.2083
-39.1937	319.159	10.2766
-39.1876	320.645	10.345
-39.1814	321.734	10.41333
-39.1758	321.326	10.4817
-39.17046	325.038	10.55
-39.1648	332.22	10.6184
-39.1581	334.188	10.6868
-39.1534	338.512	10.7551
-39.147	342.197	10.8235
-39.14212	344.609	10.8918
-39.1362	346.68	10.9602
-39.1307	345.5	11.0286
-39.1236	345.077	11.0969
-39.1185	346.806	11.1653
-39.1128	350.52	11.2336
-39.1063	354.546	11.302
-39.1019	357.14	11.3704
-39.0961	361.881	11.4387
-39.0898	365.309	11.50708
-39.0837	369.025	11.5754
-39.0779	369.493	11.6438
-39.0725	371.073	11.7122
-39.0669	368.779	11.7805
-39.0612	370.04	11.8489
-39.0556	373.0885	11.9172
-39.0511	375.6	11.9856
-39.04414	379.174	12.054
-39.0386	382.422	12.1223
-39.0332	384.178	12.1907
-39.0269	391.246	12.259
-39.0211	393.198	12.3274
-39.0153	390.686	12.3958
-39.0111	389.722	12.4641
-39.0046	390.555	12.5325
-38.99807	392.1152	12.60083
-38.9931	392.3092	12.6692
-38.9873	394.166	12.7375
-38.9812	400.4617	12.8059
-38.9753	400.919	12.8743
-38.9702	407.826	12.9426
-38.9653	409.686	13.011
-38.9589	407.522	13.0793
-38.9528	406.023	13.1477
-38.9474	409.82	13.2161
-38.94154	406.683	13.2844
-38.9355	405.952	13.3528
-38.9295	410.974	13.4211
-38.9234	411.401	13.4895
-38.919	414.951	13.5579
-38.9141	419.9126	13.6262
-38.9065	422.89	13.69458
-38.9021	417.697	13.7629
-38.89563	419.763	13.8313
-38.8906	421.212	13.8997
-38.8852	418.384	13.968
-38.8796	416.826	14.0364
-38.8735	419.215	14.1047
-38.868	418.342	14.1731
-38.8626	422.886	14.2415
-38.8572	426.702	14.3098
-38.8511	428.354	14.3782
-38.845	425.551	14.4465
-38.8379	426.751	14.5149
-38.8345	429.067	14.5833
-38.8279	423.3244	14.6516
-38.8217	423.844	14.72
-38.8158	424.209	14.78833
-38.812	424.136	14.8567
-38.8056	424.4548	14.925
-38.7999	429.1344	14.9934
-38.7936	431.077	15.0618
-38.7886	427.694	15.1301
-38.783	431.781	15.1985
-38.7775	433.397	15.2668
-38.7709	428.252	15.3352
-38.7654	426.114	15.4036
-38.7594	427.683	15.4719
-38.7534	425.497	15.5403
-38.7477	425.671	15.6086
-38.7421	428.9697	15.677
-38.7365	429.998	15.7454
-38.7304	428.241	15.8137
-38.7253	432.801	15.88208
-38.71994	434.529	15.9504
-38.7151	431.3847	16.0188
-38.7086	429.896	16.0872
-38.7035	427.821	16.1555
-38.6972	426.62	16.2239
-38.6918	425.361	16.2922
-38.68589	427.761	16.3606
-38.6792	425.069	16.429
-38.6758	425.594	16.4973
-38.6684	430.277	16.5657
-38.66135	431.411	16.634
-38.6566	429.319	16.7024
-38.6525	426.812	16.7708
-38.6456	426.107	16.8391
-38.6386	423.82	16.9075
-38.6336	421.945	16.97583
-38.6288	421.6178	17.0442
-38.6238	420.0885	17.1125
-38.6185	421.089	17.1809
-38.6107	426.293	17.2493
-38.6063	427.097	17.3176
-38.5997	425.655	17.386
-38.5938	425.761	17.4543
-38.5872	422.973	17.5227
-38.5834	423.21	17.5911
-38.5773	420.427	17.6594
-38.5714	418.464	17.7278
-38.5658	415.485	17.7961
-38.5592	418.995	17.8645
-38.55476	421.712	17.9329
-38.5483	421.726	18.0012
-38.54435	423.271	18.06958
-38.5379	423.097	18.1379
-38.5316	420.642	18.2063
-38.5258	421.117	18.2747
-38.5196	417.553	18.343
-38.5142	413.444	18.4114
-38.5096	412.5513	18.4797
-38.5023	415.79	18.5481
-38.497	415.576	18.6165
-38.493	417.2532	18.6848
-38.4872	420.1304	18.7532
-38.4806	418.34	18.8215
-38.475	420.224	18.8899
-38.4694	419.967	18.9583
-38.4634	415.384	19.0266
-38.4569	412.405	19.095
-38.4516	411.428	19.16333
-38.44643	412.315	19.2317
-38.441	412.729	19.3
-38.43502	415.46	19.3684
-38.4296	416.848	19.4368
-38.424	417.126	19.5051
-38.41787	419.365	19.5735
-38.4123	419.282	19.6418
-38.406	417.659	19.7102
-38.4014	411.844	19.7786
-38.3958	412.287	19.8469
-38.3903	411.764	19.9153
-38.38401	409.8302	19.9836
-38.3823	416	20.0129

Data Header:			0.254_hd_uprint_typeiv_090_r0			Time:	29.32373	s	4/13/2019 11:14:17 PM
Data Acquisition:	Timed
Station Name:	ft40.cfg
Test File Name:	monotonic_0.2540_typeiv_solid_4545_uprint.tst
Displacement	Force	Running Time
mm	N	s
-38.3801	415.374	20.0227
-38.3765	410.98	20.0618
-38.3735	408.866	20.10083
-38.3708	416.956	20.1399
-38.3682	409.821	20.179
-38.3633	410.034	20.218
-38.3607	416.503	20.25708
-38.3577	408.015	20.2961
-38.3549	413.5408	20.3352
-38.3503	416.567	20.3743
-38.3474	408.785	20.41333
-38.34507	417.929	20.4524
-38.3404	413.297	20.4915
-38.3387	411.595	20.5305
-38.3354	416.396	20.56958
-38.331	411.073	20.6086
-38.3289	414.847	20.6477
-38.3248	414.7583	20.6868
-38.3222	411.497	20.72583
-38.3186	416.377	20.7649
-38.3149	412.541	20.804
-38.311	411.73	20.843
-38.3093	417.515	20.88208
-38.30621	408.256	20.9211
-38.3026	414.439	20.9602
-38.2976	413.7403	20.9993
-38.2964	408.346	21.03833
-38.29277	415.329	21.0774
-38.2892	410.692	21.1165
-38.2863	410.138	21.1555
-38.282	413.33	21.19458
-38.2796	408.006	21.2336
-38.2769	411.215	21.2727
-38.2719	410.899	21.3118
-38.27	406.8168	21.35083
-38.2673	415.562	21.3899
-38.2642	407.5379	21.429
-38.2604	410.988	21.468
-38.2572	415.5123	21.50708
-38.2526	406.619	21.5461
-38.2492	414.163	21.5852
-38.2465	414.8649	21.6243
-38.24284	406.226	21.66333
-38.2405	414.571	21.7024
-38.2379	412.444	21.7415
-38.2334	409.217	21.7805
-38.23016	415.239	21.81958
-38.2269	408.749	21.8586
-38.2245	414.1405	21.8977
-38.2215	414.064	21.9368
-38.2166	407.976	21.97583
-38.2153	417.003	22.0149
-38.2107	409.157	22.054
-38.20771	410.0881	22.093
-38.2041	412.614	22.13208
-38.2009	407.577	22.1711
-38.1985	411.104	22.2102
-38.194	412.9537	22.2493
-38.1918	406.092	22.28833
-38.1882	413.687	22.3274
-38.1855	407.792	22.3665
-38.1823	407.275	22.4055
-38.1784	412.643	22.44458
-38.1741	406.3371	22.4836
-38.1723	413.6843	22.5227
-38.1692	408.95	22.5618
-38.1656	405.242	22.60083
-38.162	413.209	22.6399
-38.1588	407.058	22.679
-38.1554	406.373	22.718
-38.152	413.999	22.75708
-38.1501	404.9852	22.7961
-38.1458	411.813	22.8352
-38.1425	412.499	22.8743
-38.14019	406.088	22.91333
-38.1365	414.116	22.9524
-38.1328	410.137	22.9915
-38.12973	409.761	23.0305
-38.1266	413.172	23.06958
-38.1239	407.714	23.1086
-38.1198	410.737	23.1477
-38.1159	412.176	23.1868
-38.1138	407.469	23.22583
-38.1095	415.525	23.2649
-38.1081	410.28	23.304
-38.1036	407.47	23.343
-38.1011	414.261	23.38208
-38.0967	404.837	23.4211
-38.09391	410.644	23.4602
-38.0899	410.386	23.4993
-38.0871	405.576	23.53833
-38.0839	410.011	23.5774
-38.0802	408.601	23.6165
-38.0778	407.9823	23.6555
-38.0753	409.557	23.69458
-38.0709	404.917	23.7336
-38.0678	410.508	23.7727
-38.0646	408.359	23.8118
-38.0618	403.327	23.85083
-38.0579	412.006	23.8899
-38.0543	403.474	23.929
-38.0516	406.584	23.968
-38.0472	413.441	24.00708
-38.0459	402.939	24.0461
-38.0416	409.487	24.0852
-38.0389	409.944	24.1243
-38.035	404.823	24.16333
-38.0321	413.2673	24.2024
-38.0286	409.438	24.2415
-38.02631	406.646	24.2805
-38.0217	413.22	24.31958
-38.01902	405.488	24.3586
-38.0153	410.337	24.3977
-38.0128	409.935	24.4368
-38.0097	405.217	24.47583
-38.006	412.386	24.5149
-38.0031	406.219	24.554
-38.0005	406.753	24.593
-37.9962	411.38	24.63208
-37.9929	403.768	24.6711
-37.9902	408.612	24.7102
-37.9866	411.052	24.7493
-37.9832	403.734	24.78833
-37.9803	409.433	24.8274
-37.9769	404.009	24.8665
-37.9735	408.248	24.9055
-37.969	407.82	24.94458
-37.96785	401.694	24.9836
-37.9642	409.865	25.0227
-37.96085	405.6	25.0618
-37.9579	403.748	25.10083
-37.9533	409.766	25.1399
-37.95079	403.595	25.179
-37.9476	405.699	25.218
-37.9447	411.763	25.25708
-37.941	401.692	25.2961
-37.9374	408.82	25.3352
-37.9347	408.831	25.3743
-37.9323	405.311	25.41333
-37.92675	409.673	25.4524
-37.9246	405.449	25.4915
-37.9215	405.668	25.5305
-37.9173	407.62	25.56958
-37.914	404.847	25.6086
-37.9117	407.682	25.6477
-37.908	406.646	25.6868
-37.9054	401.308	25.72583
-37.9024	404.586	25.7649
-37.8982	375.646	25.804
-37.8947	278.866	25.843
-37.8905	-36.861	25.88208
-37.8877	-48.22374	25.9211
-37.8851	-41.6798	25.9602
-37.8825	-42.2806	25.9993
-37.8774	-44.7224	26.03833
-37.8759	-41.8933	26.0774
-37.8722	-44.3981	26.1165
-37.8694	-42.87001	26.1555
-37.8661	-42.4553	26.19458
-37.8631	-47.8007	26.2336
-37.8599	-41.0802	26.2727
-37.8554	-44.3101	26.3118
-37.8535	-47.6512	26.35083
-37.8505	-37.5936	26.3899
-37.8474	-45.3692	26.429
-37.84407	-42.3796	26.468
-37.8395	-37.7947	26.50708
-37.8366	-45.6828	26.5461
-37.8325	-40.8768	26.5852
-37.8305	-39.1464	26.6243
-37.8263	-44.50127	26.66333
-37.8239	-39.3767	26.7024
-37.8208	-41.6274	26.7415
-37.817	-43.6711	26.7805
-37.8134	-38.3899	26.81958
-37.8103	-47.0719	26.8586
-37.8074	-40.87949	26.8977
-37.8037	-41.1123	26.9368
-37.8016	-45.5606	26.97583
-37.7973	-40.2522	27.0149
-37.7946	-44.8034	27.054
-37.7906	-43.5558	27.093
-37.788	-39.0138	27.13208
-37.785	-44.6819	27.1711
-37.7821	-43.8951	27.2102
-37.7779	-41.9376	27.2493
-37.7745	-46.5774	27.28833
-37.7714	-41.6746	27.3274
-37.76712	-44.5714	27.3665
-37.7654	-42.888	27.4055
-37.7608	-43.2791	27.44458
-37.7583	-46.6549	27.4836
-37.7553	-39.1158	27.5227
-37.7528	-42.7465	27.5618
-37.7488	-45.5859	27.60083
-37.74477	-38.3489	27.6399
-37.7416	-44.383	27.679
-37.7388	-45.84515	27.718
-37.73547	-38.12352	27.75708
-37.7318	-46.1824	27.7961
-37.7287	-39.7882	27.8352
-37.7259	-39.49379	27.8743
-37.7225	-45.0366	27.91333
-37.7198	-38.9982	27.9524
-37.71661	-43.4672	27.9915
-37.7128	-42.5004	28.0305
-37.71	-40.3519	28.06958
-37.7064	-45.5568	28.1086
-37.7028	-39.4186	28.1477
-37.6989	-40.5865	28.1868
-37.696	-47.3882	28.22583
-37.6922	-38.5744	28.2649
-37.6893	-44.9917	28.304
-37.6861	-45.8948	28.343
-37.6836	-41.0607	28.38208
-37.6799	-48.42886	28.4211
-37.6762	-44.3191	28.4602
-37.67181	-43.5296	28.4993
-37.6704	-46.24012	28.53833
-37.6661	-43.9064	28.5774
-37.6639	-44.3311	28.6165
-37.6605	-43.9336	28.6555
-37.6571	-41.292	28.69458
-37.6543	-47.6596	28.7336
-37.6508	-41.2353	28.7727
-37.6475	-42.6623	28.8118
-37.6446	-46.326	28.85083
-37.6412	-37.6664	28.8899
-37.6379	-47.3228	28.929
-37.6346	-43.17067	28.968
-37.6323	-39.1683	29.00708
-37.628	-46.3211	29.0461
-37.625	-43.2829	29.0852
-37.62252	-41.2097	29.1243
-37.6188	-46.3185	29.16333
-37.6147	-39.7386	29.2024
-37.61129	-44.2635	29.2415
-37.6091	-44.3916	29.2805
-37.6052	-38.7683	29.31958