File: data/processed_data_files/tensile/0.254_hd_uprint_typeiv_090_r(7).dat
MTS793|BTW|ENU|1|2|.|/|:|1|0|0|A

Data Header:			0.254_hd_uprint_typeiv_090_r0			Time:	20.0183	s	4/13/2019 11:11:39 PM
Data Acquisition:	Timed
Station Name:	ft40.cfg
Test File Name:	monotonic_0.2540_typeiv_solid_4545_uprint.tst
Displacement	Force	Running Time
mm	N	s
-40.04248	-158.146	0.0229492
-40.0416	-161.733	0.0913086
-40.0357	-160.369	0.159668
-40.03027	-156.312	0.228027
-40.0243	-149.057	0.296387
-40.0184	-145.614	0.364746
-40.0123	-144.083	0.433105
-40.0055	-140.207	0.501465
-40.0012	-139.838	0.569824
-39.99596	-137.204	0.638184
-39.9894	-131.682	0.706543
-39.9842	-129.068	0.774902
-39.9791	-126.501	0.843262
-39.9723	-120.587	0.911621
-39.9671	-113.295	0.97998
-39.9609	-111.975	1.04834
-39.9553	-110.036	1.1167
-39.95	-106.727	1.18506
-39.9439	-107.153	1.253418
-39.9391	-105.1599	1.32178
-39.9329	-99.6482	1.39014
-39.9268	-96.2175	1.4585
-39.9212	-96.6679	1.52686
-39.9143	-88.4317	1.59521
-39.9097	-80.9334	1.66357
-39.9041	-79.4725	1.73193
-39.8981	-77.1425	1.800293
-39.8913	-70.3155	1.86865
-39.8867	-71.6133	1.93701
-39.8816	-70.2317	2.00537
-39.8753	-66.1975	2.07373
-39.8694	-65.0145	2.14209
-39.86459	-64.0019	2.21045
-39.8575	-56.1276	2.27881
-39.8517	-47.4458	2.347168
-39.8474	-45.9413	2.41553
-39.8407	-41.2524	2.48389
-39.8353	-36.646	2.55225
-39.83	-40.2222	2.62061
-39.8246	-36.1247	2.68896
-39.819	-31.8407	2.75732
-39.8138	-32.1263	2.82568
-39.8064	-33.2232	2.894043
-39.8014	-22.9845	2.9624
-39.7959	-19.0238	3.03076
-39.7902	-14.75979	3.09912
-39.7851	-10.078	3.16748
-39.779	-4.82509	3.23584
-39.7736	-5.298346	3.3042
-39.76775	-1.9177	3.37256
-39.762	0.0141764	3.440918
-39.7563	-1.53975	3.50928
-39.7502	0.579462	3.57764
-39.7437	8.76678	3.646
-39.739	12.81872	3.71436
-39.7335	15.489	3.78271
-39.7275	22.2794	3.85107
-39.7217	27.2137	3.91943
-39.7173	27.4778	3.987793
-39.7103	30.5881	4.05615
-39.7035	32.985	4.12451
-39.6993	32.5447	4.19287
-39.693	33.0406	4.26123
-39.688	41.823	4.32959
-39.6816	45.91486	4.39795
-39.6766	49.2167	4.46631
-39.6709	55.5689	4.534668
-39.66452	58.19046	4.60303
-39.6594	63.9883	4.67139
-39.6548	65.7222	4.73975
-39.6485	65.6353	4.80811
-39.643	65.8435	4.87646
-39.6362	68.1512	4.94482
-39.6304	73.6506	5.01318
-39.6252	75.7527	5.081543
-39.619	80.42984	5.1499
-39.6136	84.345	5.21826
-39.6081	90.78875	5.28662
-39.60144	94.3601	5.35498
-39.596	96.9607	5.42334
-39.5908	97.7357	5.4917
-39.5846	97.3564	5.56006
-39.5788	102.3479	5.628418
-39.57436	105.038	5.69678
-39.5695	106.344	5.76514
-39.5635	112.316	5.8335
-39.5565	113.984	5.90186
-39.5516	119.789	5.97021
-39.5461	125.33	6.03857
-39.5391	127.932	6.10693
-39.5348	128.269	6.175293
-39.5288	132.072	6.24365
-39.5221	135.909	6.31201
-39.5177	136.351	6.38037
-39.5106	138.428	6.44873
-39.5066	142.775	6.51709
-39.5003	144.39	6.58545
-39.4952	150.5808	6.65381
-39.4879	156.503	6.722168
-39.4819	158.315	6.79053
-39.476	158.688	6.85889
-39.4715	163.905	6.92725
-39.4657	169.288	6.99561
-39.4597	166.949	7.06396
-39.4545	170.236	7.13232
-39.4473	174.273	7.20068
-39.4422	172.819	7.269043
-39.4369	181.221	7.3374
-39.4317	185.157	7.40576
-39.4259	185.875	7.47412
-39.4207	190.493	7.54248
-39.4142	196.389	7.61084
-39.4086	199.734	7.6792
-39.40414	196.966	7.74756
-39.3973	202.511	7.815918
-39.3913	205.4595	7.88428
-39.3865	204.785	7.95264
-39.3809	209.552	8.021
-39.3743	215.901	8.08936
-39.3688	216.234	8.15771
-39.3624	220.684	8.22607
-39.3579	228.677	8.29443
-39.3519	230.025	8.362793
-39.3455	229.3828	8.43115
-39.34174	233.207	8.49951
-39.3342	233.064	8.56787
-39.3284	234.378	8.63623
-39.3228	240.25	8.70459
-39.3176	242.759	8.77295
-39.3128	243.431	8.84131
-39.306	248.694	8.909668
-39.2996	257.38	8.97803
-39.2956	259.536	9.04639
-39.2893	260.362	9.11475
-39.2837	264.706	9.18311
-39.2771	265.753	9.25146
-39.272	266.525	9.31982
-39.2653	269.517	9.38818
-39.26141	271.698	9.456543
-39.2553	272.576	9.5249
-39.2485	277.878	9.59326
-39.2438	286.328	9.66162
-39.2383	287.891	9.72998
-39.232	290.324	9.79834
-39.2267	295.208	9.8667
-39.2206	294.432	9.93506
-39.215	295.235	10.0034
-39.2096	298.3	10.0718
-39.2039	298.407	10.1401
-39.1983	300.071	10.2085
-39.1926	305.394	10.2769
-39.187	312.22	10.3452
-39.1797	315.181	10.4136
-39.1759	319.039	10.4819
-39.1708	323.67	10.5503
-39.1636	323.519	10.6187
-39.158	324.967	10.687
-39.1529	326.186	10.7554
-39.1462	325.421	10.82373
-39.1421	326.791	10.89209
-39.1354	334.189	10.9604
-39.1291	338.527	11.0288
-39.1238	341.127	11.0972
-39.11808	346.684	11.1655
-39.1122	349.732	11.2339
-39.1066	352.803	11.3022
-39.1007	351.975	11.3706
-39.0966	352.338	11.439
-39.0898	351.298	11.5073
-39.0838	353.147	11.5757
-39.079	359.526	11.644
-39.0731	364.346	11.7124
-39.0666	366.791	11.7808
-39.0617	372.159	11.8491
-39.0554	374.734	11.91748
-39.0492	377.812	11.98584
-39.043	378.888	12.0542
-39.0379	378.372	12.1226
-39.0337	375.589	12.1909
-39.0277	378.967	12.2593
-39.021	383.4054	12.3276
-39.016	383.754	12.396
-39.01	389.612	12.4644
-39.0033	393.486	12.5327
-38.9986	395.343	12.6011
-38.9924	401.252	12.6694
-38.9869	402.786	12.7378
-38.9812	399.865	12.8062
-38.97562	399.278	12.8745
-38.9702	401.629	12.9429
-38.9635	400.83	13.01123
-38.9587	404.586	13.07959
-38.953	410.21	13.1479
-38.9488	412.707	13.2163
-38.9417	413.4819	13.2847
-38.9364	420.307	13.353
-38.9299	420.6636	13.4214
-38.9232	420.191	13.4897
-38.9192	419.846	13.5581
-38.9133	422.625	13.6265
-38.9071	421.442	13.6948
-38.901	420.642	13.7632
-38.8963	425.245	13.8315
-38.88953	425.198	13.8999
-38.8837	430.3	13.9683
-38.88	434.566	14.0366
-38.874	436.768	14.10498
-38.8678	434.416	14.17334
-38.861	435.363	14.2417
-38.8562	438.636	14.3101
-38.8505	434.602	14.3784
-38.8446	434.19	14.4468
-38.83889	437.48	14.5151
-38.8328	438.167	14.5835
-38.8264	440.338	14.6519
-38.8218	445.829	14.7202
-38.81638	445.649	14.7886
-38.8095	443.769	14.8569
-38.80526	444.917	14.9253
-38.799	447.977	14.9937
-38.7929	444.3526	15.062
-38.7876	443.886	15.1304
-38.7812	445.2663	15.19873
-38.7774	442.636	15.26709
-38.7714	444.581	15.3354
-38.7653	447.488	15.4038
-38.7597	448.249	15.4722
-38.75312	447.245	15.5405
-38.74823	449.52	15.6089
-38.74276	451.881	15.6772
-38.7365	447.314	15.7456
-38.7304	446.796	15.814
-38.7256	445.646	15.8823
-38.7191	444.286	15.9507
-38.7134	443.809	16.019
-38.7084	446.701	16.0874
-38.7023	446.09	16.1558
-38.6969	445.612	16.2241
-38.6905	451.286	16.29248
-38.6856	451.101	16.36084
-38.6795	446.303	16.4292
-38.67395	446.042	16.4976
-38.6683	445.134	16.5659
-38.6627	442.528	16.6343
-38.6567	442.47	16.7026
-38.6514	441.285	16.771
-38.6447	438.805	16.8394
-38.63998	440.53	16.9077
-38.6335	446.853	16.9761
-38.6278	448.21	17.0444
-38.6226	444.785	17.1128
-38.6165	444.206	17.1812
-38.6116	440.472	17.2495
-38.6063	440.546	17.3179
-38.5987	437.356	17.38623
-38.5945	436.129	17.45459
-38.5891	436.206	17.5229
-38.5828	438.597	17.5913
-38.5778	440.775	17.6597
-38.5719	440.364	17.728
-38.5661	441.206	17.7964
-38.5614	438.7598	17.8647
-38.5541	436.759	17.9331
-38.5479	436.428	18.0015
-38.5431	433.98	18.0698
-38.53793	430.612	18.1382
-38.5311	428.97	18.2065
-38.5259	432.59	18.2749
-38.5201	435.83	18.3433
-38.5139	434.629	18.4116
-38.50882	438.814	18.47998
-38.5027	437.6225	18.54834
-38.4979	434.652	18.6167
-38.492	435.259	18.6851
-38.4862	433.056	18.7534
-38.4798	427.431	18.8218
-38.4743	427.335	18.8901
-38.4693	431.61	18.9585
-38.4637	430.628	19.0269
-38.45681	432.825	19.0952
-38.4525	435.6221	19.1636
-38.4468	434.21	19.2319
-38.4407	435.545	19.3003
-38.4336	433.722	19.3687
-38.42889	430.808	19.437
-38.4229	425.73	19.5054
-38.4164	425.071	19.57373
-38.41256	429.291	19.64209
-38.4062	425.872	19.7104
-38.3997	429.896	19.7788
-38.3943	432.05	19.8472
-38.3901	431.047	19.9155
-38.3828	433.347	19.9839
-38.3813	424.491	20.0132

Data Header:			0.254_hd_uprint_typeiv_090_r0			Time:	29.4836	s	4/13/2019 11:11:49 PM
Data Acquisition:	Timed
Station Name:	ft40.cfg
Test File Name:	monotonic_0.2540_typeiv_solid_4545_uprint.tst
Displacement	Force	Running Time
mm	N	s
-38.38018	423.1795	20.0229
-38.3769	427.819	20.062
-38.3732	432.544	20.1011
-38.3704	422.132	20.1401
-38.3673	430.94	20.1792
-38.3628	429.475	20.2183
-38.3602	425.312	20.2573
-38.3574	432.65	20.2964
-38.3533	427.23	20.3354
-38.3507	428.494	20.3745
-38.34663	431.4321	20.4136
-38.3447	427.2211	20.4526
-38.3413	430.882	20.4917
-38.3371	429.303	20.5308
-38.3353	423.0629	20.5698
-38.3318	433.244	20.6089
-38.328	425.019	20.6479
-38.3248	426.749	20.687
-38.3213	430.837	20.7261
-38.3187	422.7132	20.7651
-38.3149	428.621	20.8042
-38.3116	427.616	20.8433
-38.3083	424.839	20.8823
-38.3053	427.3421	20.9214
-38.3006	424.855	20.9604
-38.2989	426.3165	20.9995
-38.2952	426.142	21.0386
-38.2923	421.921	21.0776
-38.2892	429.996	21.1167
-38.285	422.811	21.1558
-38.2819	422.334	21.1948
-38.27903	430.111	21.2339
-38.2753	420.084	21.2729
-38.2718	425.469	21.312
-38.2685	428.84	21.3511
-38.2666	421.243	21.3901
-38.2623	427.59	21.4292
-38.2593	427.877	21.4683
-38.2575	421.775	21.5073
-38.2527	429.082	21.5464
-38.2491	423.7244	21.5854
-38.2468	428.205	21.6245
-38.2431	430.334	21.6636
-38.2396	423.3313	21.7026
-38.2364	429.898	21.7417
-38.2334	425.692	21.7808
-38.2301	423.0253	21.8198
-38.2267	430.07	21.8589
-38.2241	422.794	21.8979
-38.22076	422.555	21.937
-38.2172	428.734	21.9761
-38.2146	418.988	22.0151
-38.2103	424.683	22.0542
-38.2077	425.154	22.0933
-38.20496	420.9671	22.1323
-38.201	425.29	22.1714
-38.1965	422.158	22.2104
-38.1941	426.489	22.2495
-38.191	423.592	22.2886
-38.1872	420.094	22.3276
-38.1845	425.121	22.3667
-38.18148	421.86	22.4058
-38.1785	420.978	22.4448
-38.1755	427.649	22.4839
-38.1718	419.368	22.5229
-38.1696	424.047	22.562
-38.1657	426.779	22.6011
-38.1627	419.788	22.6401
-38.158	427.916	22.6792
-38.1556	423.639	22.7183
-38.1511	422.336	22.7573
-38.14893	426.33	22.7964
-38.1468	422.58	22.8354
-38.1427	424.996	22.8745
-38.1403	427.428	22.9136
-38.1363	419.973	22.9526
-38.1313	426.2738	22.9917
-38.1302	423.569	23.0308
-38.12553	419.372	23.0698
-38.1233	426.654	23.1089
-38.1209	419.9303	23.1479
-38.1167	422.053	23.187
-38.1136	424.538	23.2261
-38.1104	418.667	23.2651
-38.107	421.433	23.3042
-38.1027	421.003	23.3433
-38.1011	419.707	23.3823
-38.0961	424.73	23.4214
-38.09256	419.688	23.4604
-38.0901	422.702	23.4995
-38.0863	422.95	23.5386
-38.084	418.156	23.5776
-38.0812	425.031	23.6167
-38.0773	419.055	23.6558
-38.0731	419.481	23.6948
-38.0704	426.07	23.7339
-38.0679	416.853	23.7729
-38.0641	422.402	23.812
-38.06181	426.034	23.8511
-38.0588	418.355	23.8901
-38.0537	424.807	23.9292
-38.0518	423.2197	23.9683
-38.0473	420.542	24.0073
-38.0434	426.065	24.0464
-38.0422	417.435	24.0854
-38.03735	423.759	24.1245
-38.0349	423.841	24.1636
-38.03231	419.608	24.2026
-38.0282	425.45	24.2417
-38.0259	422.539	24.2808
-38.0221	416.6	24.3198
-38.0184	423.57	24.3589
-38.0149	418.973	24.3979
-38.0117	416.942	24.437
-38.009	422.71	24.4761
-38.0052	416.648	24.5151
-38.00391	419.81	24.5542
-38.0005	419.572	24.5933
-37.9962	419.0127	24.6323
-37.9939	419.808	24.6714
-37.9897	418.134	24.7104
-37.9868	419.495	24.7495
-37.9826	420.987	24.7886
-37.9803	417.258	24.8276
-37.97636	422.519	24.8667
-37.9734	419.374	24.9058
-37.9697	418.993	24.9448
-37.9659	425.825	24.9839
-37.963	416.319	25.0229
-37.9605	421.189	25.062
-37.9566	423.228	25.1011
-37.9532	416.926	25.1401
-37.9507	423.288	25.1792
-37.9466	421.653	25.2183
-37.9445	420.153	25.2573
-37.94	423.6214	25.2964
-37.9366	418.359	25.3354
-37.9333	420.005	25.3745
-37.9304	422.892	25.4136
-37.9266	414.043	25.4526
-37.92387	422.732	25.4917
-37.9215	418.041	25.5308
-37.9172	414.0246	25.5698
-37.914	422.898	25.6089
-37.9117	414.101	25.6479
-37.907	415.325	25.687
-37.9062	418.844	25.7261
-37.902	414.707	25.7651
-37.8979	417.891	25.8042
-37.8954	419.531	25.8433
-37.8921	415.204	25.8823
-37.8889	418.729	25.9214
-37.8852	414.319	25.9604
-37.8811	418.816	25.9995
-37.8785	417.196	26.0386
-37.8762	415.598	26.0776
-37.872	419.028	26.1167
-37.8687	415.448	26.1558
-37.8654	415.135	26.1948
-37.8626	420.775	26.2339
-37.8593	415.208	26.2729
-37.8557	416.302	26.312
-37.8536	422.786	26.3511
-37.85006	412.949	26.3901
-37.8457	421.476	26.4292
-37.8431	417.686	26.4683
-37.84029	415.622	26.5073
-37.8378	420.399	26.5464
-37.83334	412.666	26.5854
-37.8306	417.798	26.6245
-37.8275	417.828	26.6636
-37.8236	410.592	26.7026
-37.8193	417.786	26.7417
-37.8177	415.98	26.7808
-37.8126	409.3606	26.8198
-37.8102	417.869	26.8589
-37.8071	413.45	26.8979
-37.8042	411.193	26.937
-37.80043	416.648	26.9761
-37.7959	409.31	27.0151
-37.7933	412.1424	27.0542
-37.7903	410.607	27.0933
-37.7868	408.922	27.1323
-37.7853	406.582	27.1714
-37.7778	-33.4159	27.2104
-37.7768	-45.2308	27.2495
-37.7739	-44.3135	27.2886
-37.76984	-45.8028	27.3276
-37.7666	-39.8054	27.3667
-37.7643	-42.9966	27.4058
-37.7603	-44.9568	27.4448
-37.7586	-38.6366	27.4839
-37.7542	-45.2564	27.5229
-37.751	-42.9973	27.562
-37.748	-41.7396	27.6011
-37.7445	-43.5818	27.6401
-37.7411	-41.0472	27.6792
-37.7377	-42.7219	27.7183
-37.735	-45.5331	27.7573
-37.7315	-40.9907	27.7964
-37.7294	-47.4601	27.8354
-37.7248	-42.113	27.8745
-37.7219	-42.9864	27.9136
-37.7198	-50.8618	27.9526
-37.716	-41.4638	27.9917
-37.7123	-45.0102	28.0308
-37.7102	-50.4537	28.0698
-37.70533	-42.7467	28.1089
-37.7033	-46.6369	28.1479
-37.6997	-49.71616	28.187
-37.6964	-42.9802	28.2261
-37.6933	-45.8365	28.2651
-37.6901	-44.2656	28.3042
-37.6857	-43.74509	28.3433
-37.6834	-45.475	28.3823
-37.6799	-40.4438	28.4214
-37.6767	-44.7971	28.4604
-37.6737	-41.6051	28.4995
-37.6706	-42.1532	28.5386
-37.66785	-44.8529	28.5776
-37.6639	-40.4862	28.6167
-37.6601	-42.5067	28.6558
-37.6573	-46.8297	28.6948
-37.6552	-40.0727	28.7339
-37.65073	-43.8868	28.7729
-37.6467	-42.7167	28.812
-37.6438	-38.7565	28.8511
-37.6412	-48.1203	28.8901
-37.637	-39.1794	28.9292
-37.63483	-44.5381	28.9683
-37.6302	-45.1379	29.0073
-37.6278	-41.985	29.0464
-37.6251	-48.6581	29.0854
-37.6215	-44.107	29.1245
-37.6181	-41.2669	29.1636
-37.6151	-48.6814	29.2026
-37.6118	-42.6408	29.2417
-37.6086	-42.2685	29.2808
-37.60561	-49.6997	29.3198
-37.6019	-40.7173	29.3589
-37.5986	-45.2041	29.3979
-37.5959	-46.3339	29.437
-37.5915	-41.8657	29.4761