File: data/processed_data_files/tensile/0.254_hd_uprint_typei_090_r(1).dat
MTS793|BTW|ENU|1|2|.|/|:|1|0|0|A

Data Header:			0.254_hd_uprint_typei_090_r0			Time:	20.0259	s	4/15/2019 3:48:13 PM
Data Acquisition:	Timed
Station Name:	ft40.cfg
Test File Name:	monotonic_0.2540_typei_hd_090_uprint.tst
Displacement	Force	Running Time
mm	N	s
9.98011	-154.22	0.0302734
9.98143	-157.278	0.0986328
9.98693	-152.394	0.166992
9.99266	-146.334	0.235352
9.997838	-145.336	0.303711
10.0033	-142.894	0.37207
10.0088	-141.374	0.44043
10.0141	-141.722	0.508789
10.021	-144.824	0.577148
10.0266	-140.464	0.645508
10.0315	-134.607	0.713867
10.03829	-129.969	0.782227
10.04381	-124.023	0.850586
10.0494	-118.224	0.918945
10.0552	-116.063	0.987305
10.0609	-111.27	1.05566
10.0669	-109.066	1.12402
10.0716	-109.964	1.19238
10.0782	-111.834	1.26074
10.0826	-108.813	1.3291
10.0887	-103.283	1.39746
10.0945	-100.422	1.46582
10.1002	-94.22831	1.53418
10.1052	-86.5401	1.60254
10.1126	-83.73822	1.6709
10.1183	-77.93718	1.73926
10.1239	-76.96788	1.80762
10.1288	-77.5952	1.87598
10.1348	-77.8406	1.94434
10.1404	-74.5852	2.0127
10.1465	-70.332	2.08105
10.15154	-69.4343	2.14941
10.1573	-62.64481	2.21777
10.1638	-56.2879	2.28613
10.1692	-50.7314	2.35449
10.175	-44.7507	2.42285
10.1799	-41.1365	2.49121
10.1856	-43.4416	2.55957
10.1917	-39.7887	2.62793
10.198	-37.0313	2.69629
10.2036	-37.3157	2.76465
10.2089	-35.8485	2.83301
10.2138	-28.667	2.90137
10.2199	-26.6185	2.96973
10.2246	-19.9006	3.03809
10.232	-12.0741	3.10645
10.2369	-6.71758	3.1748
10.2428	-8.06506	3.24316
10.24906	-4.38853	3.31152
10.25454	-0.882973	3.37988
10.2602	-4.65602	3.44824
10.2657	-1.02933	3.5166
10.271	3.5302	3.58496
10.2763	7.29131	3.65332
10.2828	13.8812	3.72168
10.2885	22.0078	3.79004
10.2942	25.9826	3.8584
10.2999	25.6995	3.92676
10.3056	32.1715	3.99512
10.3106	35.7881	4.06348
10.3164	33.2925	4.13184
10.3228	33.70118	4.2002
10.328	37.19664	4.26855
10.3335	41.1384	4.33691
10.3394	45.71056	4.40527
10.346	52.9806	4.47363
10.3514	58.6026	4.54199
10.3563	60.8338	4.61035
10.3623	67.58844	4.67871
10.369	73.0656	4.74707
10.3747	68.6669	4.81543
10.3803	71.4168	4.88379
10.38519	75.0395	4.95215
10.39117	76.4911	5.02051
10.3962	80.4587	5.08887
10.4034	88.8017	5.15723
10.4079	91.7527	5.22559
10.4136	96.0215	5.29395
10.4197	102.334	5.3623
10.4253	107.3922	5.43066
10.4306	107.025	5.49902
10.43668	108.609	5.56738
10.4421	109.783	5.63574
10.4479	112.614	5.7041
10.4534	115.539	5.77246
10.4588	119.867	5.84082
10.4649	124.679	5.90918
10.4702	127.6	5.97754
10.47603	135.469	6.0459
10.4824	139.823	6.11426
10.4879	142.435	6.18262
10.4938	143.333	6.25098
10.5002	145.465	6.31934
10.505	145.049	6.3877
10.5109	149.842	6.45605
10.5161	152.078	6.52441
10.5228	155.085	6.59277
10.5279	158.869	6.66113
10.5335	168.634	6.72949
10.5395	172.447	6.79785
10.5446	175.576	6.86621
10.5503	178.686	6.93457
10.5563	178.942	7.00293
10.5619	179.652	7.07129
10.5684	182.722	7.13965
10.573	183.5108	7.20801
10.5778	184.211	7.27637
10.5847	192.283	7.34473
10.5902	201.122	7.41309
10.5953	204.7827	7.48145
10.6023	208.878	7.5498
10.6085	214.829	7.61816
10.6134	211.874	7.68652
10.6189	215.4624	7.75488
10.62498	217.499	7.82324
10.63	217.377	7.8916
10.6359	218.705	7.95996
10.6414	224.041	8.02832
10.6471	233.166	8.09668
10.6529	235.836	8.16504
10.6581	241.792	8.2334
10.664	248.069	8.30176
10.6705	248.218	8.37012
10.6765	250.272	8.43848
10.6819	253.94	8.50684
10.6874	251.344	8.5752
10.6912	249.979	8.64355
10.6985	256.997	8.71191
10.7049	264.411	8.78027
10.7107	269.394	8.84863
10.716	275.3511	8.91699
10.7205	281.4921	8.98535
10.7273	284.087	9.05371
10.7314	286.093	9.12207
10.7381	286.75	9.19043
10.74384	286.861	9.25879
10.7488	285.8663	9.32715
10.7554	289.795	9.39551
10.761	298.105	9.46387
10.7668	300.975	9.53223
10.7724	306.76	9.60059
10.7789	312.293	9.66895
10.78475	317.407	9.7373
10.7893	319.784	9.80566
10.79539	323.172	9.87402
10.8021	320.725	9.94238
10.8071	319.702	10.0107
10.8128	323.2363	10.0791
10.8178	328.106	10.1475
10.8243	331.331	10.21582
10.8294	337.339	10.28418
10.8355	344.586	10.3525
10.8404	351.156	10.4209
10.8463	355.319	10.4893
10.852	356.126	10.5576
10.85896	355.698	10.626
10.8626	355.032	10.6943
10.8684	358.412	10.7627
10.8753	361.626	10.8311
10.8807	361.6813	10.8994
10.8859	369.368	10.9678
10.8926	374.707	11.0361
10.8977	381.283	11.1045
10.9042	387.941	11.1729
10.9092	390.136	11.2412
10.9146	387.442	11.30957
10.9207	389.625	11.37793
10.9264	391.9588	11.4463
10.9326	391.35	11.5146
10.9369	393.606	11.583
10.9431	400.714	11.6514
10.9489	402.96	11.7197
10.9549	411.442	11.7881
10.9603	419.5856	11.8564
10.9655	421.02	11.9248
10.9713	420.443	11.9932
10.9772	422.92	12.0615
10.9827	427.85	12.1299
10.989	425.475	12.1982
10.9945	426.313	12.2666
11.0006	431.559	12.335
11.006	432.463	12.40332
11.01144	440.655	12.47168
11.0173	448.106	12.54
11.0226	452.988	12.6084
11.0275	452.8165	12.6768
11.035	457.446	12.7451
11.0393	460.42	12.8135
11.0459	459.224	12.8818
11.0506	458.903	12.9502
11.0568	462.514	13.0186
11.0627	463.728	13.0869
11.068	469.382	13.1553
11.0739	477.369	13.2236
11.0803	480.893	13.292
11.0862	483.655	13.3604
11.0905	491.648	13.4287
11.0979	493.351	13.49707
11.1026	490.756	13.56543
11.10845	493.378	13.6338
11.1136	494.781	13.7021
11.1199	495.636	13.7705
11.1257	497.788	13.8389
11.13113	506.77	13.9072
11.1371	509.608	13.9756
11.1427	514.229	14.0439
11.149	519.695	14.1123
11.1541	523.867	14.1807
11.1596	525.302	14.249
11.1658	525.214	14.3174
11.1718	525.405	14.3857
11.1771	525.593	14.4541
11.1825	529.571	14.5225
11.1878	531.921	14.59082
11.1941	535.919	14.65918
11.1977	542.951	14.7275
11.2048	551.058	14.7959
11.2119	555.573	14.8643
11.2175	556.1828	14.9326
11.2224	558.576	15.001
11.2283	556.948	15.0693
11.2331	556.904	15.1377
11.2398	558.65	15.2061
11.2452	561.272	15.2744
11.2512	564.331	15.3428
11.2566	569.67	15.4111
11.26214	579.542	15.4795
11.2677	583.148	15.5479
11.2728	585.088	15.6162
11.2799	587.914	15.68457
11.28564	587.256	15.75293
11.2911	586.5083	15.8213
11.2961	587.7934	15.8896
11.3022	589.7135	15.958
11.30739	587.702	16.0264
11.3137	597.159	16.0947
11.3195	608.154	16.1631
11.3254	608.674	16.2314
11.3298	615.322	16.2998
11.3369	619.976	16.3682
11.3407	617.107	16.4365
11.3487	617.636	16.5049
11.3542	618.249	16.5732
11.35986	617.797	16.6416
11.3647	616.4314	16.71
11.3705	622.584	16.77832
11.3749	633.226	16.84668
11.3812	635.504	16.915
11.3867	641.736	16.9834
11.3932	647.495	17.0518
11.3999	645.487	17.1201
11.40452	646.484	17.1885
11.41	647.696	17.2568
11.41658	646.125	17.3252
11.4226	645.1225	17.3936
11.4276	649.259	17.4619
11.4325	658.809	17.5303
11.4393	661.973	17.5986
11.4448	667.843	17.667
11.45009	674.061	17.7354
11.4563	674.458	17.8037
11.46184	675.04	17.87207
11.4676	678.349	17.94043
11.4727	676.238	18.0088
11.4788	673.012	18.0771
11.4844	676.807	18.1455
11.49091	684.172	18.2139
11.49567	687.6402	18.2822
11.5025	691.966	18.3506
11.5075	697.813	18.4189
11.5145	701.931	18.4873
11.5189	705.552	18.5557
11.5255	704.624	18.624
11.5296	702.333	18.6924
11.5357	700.265	18.7607
11.5421	704.121	18.8291
11.5474	706.895	18.8975
11.55316	711.4646	18.96582
11.5582	715.638	19.03418
11.5643	721.954	19.1025
11.5707	728.247	19.1709
11.5749	730.8114	19.2393
11.5811	732.321	19.3076
11.58742	729.134	19.376
11.59305	729.246	19.4443
11.5978	731.558	19.5127
11.6037	729.273	19.5811
11.6096	733.056	19.6494
11.6155	741.276	19.7178
11.6208	743.714	19.7861
11.6256	750.515	19.8545
11.6336	755.366	19.9229
11.6394	756.75	19.9912
11.6411	745.939	20.0205

Data Header:			0.254_hd_uprint_typei_090_r0			Time:	40.0259	s	4/15/2019 3:48:33 PM
Data Acquisition:	Timed
Station Name:	ft40.cfg
Test File Name:	monotonic_0.2540_typei_hd_090_uprint.tst
Displacement	Force	Running Time
mm	N	s
11.6409	751.857	20.0303
11.6463	756.214	20.0986
11.6534	760.38	20.167
11.6581	765.279	20.2354
11.6638	766.712	20.3037
11.67	768.437	20.37207
11.676	767.0152	20.44043
11.6808	763.22	20.5088
11.6869	763.335	20.5771
11.6924	768.386	20.6455
11.6982	771.733	20.7139
11.703	773.349	20.7822
11.7104	781.139	20.8506
11.7159	785.885	20.9189
11.72207	789.3454	20.9873
11.7262	790.787	21.0557
11.7324	790.805	21.124
11.73904	787.2655	21.1924
11.7442	786.348	21.2607
11.7508	789.965	21.3291
11.7548	790.445	21.3975
11.7614	795.141	21.46582
11.7677	801.732	21.53418
11.773	805.1167	21.6025
11.7781	809.33	21.6709
11.7847	813.976	21.7393
11.7898	814.15	21.8076
11.7945	809.64	21.876
11.8018	809.706	21.9443
11.80704	812.76	22.0127
11.8116	808.731	22.0811
11.8182	812.147	22.1494
11.8226	820.43	22.2178
11.83	821.01	22.2861
11.8345	826.491	22.3545
11.8403	832.763	22.4229
11.8464	831.883	22.4912
11.8528	829.952	22.55957
11.85801	828.774	22.62793
11.8645	830.98	22.6963
11.8689	828.523	22.7646
11.8748	830.763	22.833
11.8811	834.305	22.9014
11.8861	836.397	22.9697
11.89239	841.405	23.0381
11.8978	847.195	23.1064
11.9039	848.302	23.1748
11.9092	844.904	23.2432
11.9143	847.032	23.3115
11.9199	848.634	23.3799
11.9262	845.073	23.4482
11.93167	842.893	23.5166
11.9368	846.3	23.585
11.9439	848.497	23.65332
11.9488	853.474	23.72168
11.9559	858.013	23.79
11.9607	860.13	23.8584
11.9673	857.715	23.9268
11.9718	860.993	23.9951
11.9769	861.799	24.0635
11.9836	857.4281	24.1318
11.9895	854.886	24.2002
11.9939	857.252	24.2686
12.0007	854.164	24.3369
12.0053	857.37	24.4053
12.0117	863.575	24.4736
12.017	864.019	24.542
12.0233	864.307	24.6104
12.0292	867.601	24.6787
12.0345	868.802	24.74707
12.0397	865.8172	24.81543
12.0466	862.698	24.8838
12.0513	863.081	24.9521
12.0574	861.903	25.0205
12.0626	863.0155	25.0889
12.0686	864.657	25.1572
12.0737	865.995	25.2256
12.0796	868.829	25.2939
12.0851	873.026	25.3623
12.0909	874.073	25.4307
12.0975	871.261	25.499
12.1035	868.357	25.5674
12.10773	864.684	25.6357
12.1142	863.799	25.7041
12.11952	865.021	25.7725
12.125	867.23	25.84082
12.1317	865.22	25.90918
12.1373	869.027	25.9775
12.1437	873.278	26.0459
12.149	872.6355	26.1143
12.1542	872.514	26.1826
12.1609	870.117	26.251
12.1661	864.631	26.3193
12.1716	864.346	26.3877
12.1765	864.389	26.4561
12.1828	861.777	26.5244
12.1879	860.351	26.5928
12.194	865.058	26.6611
12.2008	872.826	26.7295
12.20546	869.143	26.7979
12.2111	869.942	26.8662
12.2175	870.808	26.93457
12.2216	863.787	27.00293
12.229	862.267	27.0713
12.2332	860.133	27.1396
12.2391	856.708	27.208
12.2447	855.419	27.2764
12.2508	857.503	27.3447
12.25597	865.419	27.4131
12.2615	865.706	27.4814
12.2689	866.238	27.5498
12.2729	867.249	27.6182
12.2786	864.381	27.6865
12.284	859.67	27.7549
12.2904	859.413	27.8232
12.2968	855.328	27.8916
12.3024	850.522	27.96
12.307	852.087	28.02832
12.3131	859.2121	28.09668
12.3195	858.585	28.165
12.3253	861.219	28.2334
12.3319	863.614	28.3018
12.33602	861.144	28.3701
12.3421	857.576	28.4385
12.3468	853.594	28.5068
12.3543	849.212	28.5752
12.3592	844.323	28.6436
12.3643	847.349	28.7119
12.371	853.878	28.7803
12.3757	852.532	28.8486
12.3827	857.184	28.917
12.386	858.909	28.9854
12.3938	858.077	29.0537
12.3987	854.862	29.12207
12.40542	852.236	29.19043
12.4107	847.893	29.2588
12.4176	842.239	29.3271
12.42114	845.974	29.3955
12.4274	845.7804	29.4639
12.433	847.985	29.5322
12.4379	850.254	29.6006
12.4439	851.56	29.6689
12.4503	854.519	29.7373
12.456	852.8949	29.8057
12.46182	849.931	29.874
12.4682	845.277	29.9424
12.4732	841.786	30.0107
12.4779	842.062	30.0791
12.4853	841.639	30.1475
12.4897	841.069	30.21582
12.4952	846.983	30.28418
12.5021	848.555	30.3525
12.5071	851.963	30.4209
12.513	852.406	30.4893
12.51841	848.533	30.5576
12.525	843.847	30.626
12.5312	840.569	30.6943
12.5366	841.052	30.7627
12.5418	837.239	30.8311
12.5473	839.042	30.8994
12.5527	842.549	30.9678
12.55975	841.299	31.0361
12.5644	847.69	31.1045
12.5716	850.152	31.1729
12.576	845.417	31.2412
12.5818	842.89	31.30957
12.5869	841.361	31.37793
12.5919	840.928	31.4463
12.59744	835.247	31.5146
12.60389	835.11	31.583
12.6098	840.666	31.6514
12.6147	838.672	31.7197
12.6217	842.139	31.7881
12.6267	846.707	31.8564
12.6333	846.2179	31.9248
12.6375	840.8678	31.9932
12.6442	841.632	32.0615
12.6491	841.4118	32.1299
12.6564	835.46	32.1982
12.6612	834.7973	32.2666
12.6671	837.833	32.335
12.6731	835.564	32.40332
12.6784	836.594	32.47168
12.6842	843.4801	32.54
12.689	843.252	32.6084
12.6946	840.283	32.6768
12.701	841.9057	32.7451
12.70614	840.864	32.8135
12.7122	834.589	32.8818
12.7173	832.751	32.9502
12.7239	833.6474	33.0186
12.7287	831.133	33.0869
12.7354	832.514	33.1553
12.7406	837.831	33.2236
12.74748	838.241	33.292
12.7523	838.299	33.3604
12.75779	841.152	33.4287
12.7628	841.707	33.49707
12.7692	840.134	33.56543
12.7754	833.917	33.6338
12.78086	833.293	33.7021
12.7858	832.625	33.7705
12.7918	831.9126	33.8389
12.7989	834.417	33.9072
12.8036	837.837	33.9756
12.8093	837.9671	34.0439
12.81424	840.953	34.1123
12.8199	842.6	34.1807
12.8265	838.463	34.249
12.8313	837.066	34.3174
12.8375	833.464	34.3857
12.8441	831.349	34.4541
12.84966	830.606	34.5225
12.8538	831.698	34.59082
12.8605	831.687	34.65918
12.8657	836.6	34.7275
12.87086	839.65	34.7959
12.8779	840.031	34.8643
12.8842	838.773	34.9326
12.8892	838.4649	35.001
12.8952	833.268	35.0693
12.89995	829.367	35.1377
12.9059	828.899	35.2061
12.911	830.952	35.2744
12.9173	827.642	35.3428
12.9231	831.3576	35.4111
12.929	837.74	35.4795
12.934	838.128	35.5479
12.94103	837.935	35.6162
12.9465	839.092	35.68457
12.9525	834.099	35.75293
12.9579	830.802	35.8213
12.9621	829.689	35.8896
12.9673	828.674	35.958
12.9741	826.829	36.0264
12.98	828.047	36.0947
12.9858	834.899	36.1631
12.9916	836.078	36.2314
12.9974	837.579	36.2998
13.0032	839.863	36.3682
13.009	834.97	36.4365
13.0138	831.488	36.5049
13.0201	830.177	36.5732
13.0256	828.268	36.6416
13.0307	821.578	36.71
13.0371	825.274	36.77832
13.0423	831.827	36.84668
13.0486	833.553	36.915
13.0531	835.796	36.9834
13.0599	838.53	37.0518
13.0653	836.18	37.1201
13.0709	832.173	37.1885
13.0772	830.784	37.2568
13.083	825.42	37.3252
13.08739	820.967	37.3936
13.0943	819.706	37.4619
13.1004	828.97	37.5303
13.1058	830.734	37.5986
13.111	831.927	37.667
13.1163	834.201	37.7354
13.1228	834.175	37.8037
13.12804	832.064	37.87207
13.1333	826.893	37.94043
13.1394	822.128	38.0088
13.14569	816.387	38.0771
13.1504	814.144	38.1455
13.15793	-47.8958	38.2139
13.1638	-44.4045	38.2822
13.16793	-45.3454	38.3506
13.1755	-41.7772	38.4189
13.1799	-39.26165	38.4873
13.1859	-39.8177	38.5557
13.19065	-40.724	38.624
13.1974	-46.9314	38.6924
13.2033	-50.7895	38.7607
13.2076	-50.196	38.8291
13.214	-48.7582	38.8975
13.2199	-50.1267	38.96582
13.2255	-45.45129	39.03418
13.2323	-41.7279	39.1025
13.237	-41.5652	39.1709
13.2427	-39.9709	39.2393
13.2487	-40.0649	39.3076
13.2542	-44.6213	39.376
13.2596	-50.42112	39.4443
13.2656	-49.4036	39.5127
13.2701	-49.5025	39.5811
13.277	-51.7644	39.6494
13.28223	-47.3529	39.7178
13.288	-43.7423	39.7861
13.2934	-43.2564	39.8545
13.2989	-40.85881	39.9229
13.30479	-36.5015	39.9912
13.3074	-49.7541	40.0205

Data Header:			0.254_hd_uprint_typei_090_r0			Time:	40.50415	s	4/15/2019 3:48:33 PM
Data Acquisition:	Timed
Station Name:	ft40.cfg
Test File Name:	monotonic_0.2540_typei_hd_090_uprint.tst
Displacement	Force	Running Time
mm	N	s
13.30859	-47.1492	40.0303
13.3097	-42.7898	40.04
13.31	-41.3755	40.0498
13.3112	-43.3205	40.05957
13.3118	-44.2925	40.0693
13.31339	-52.6763	40.0791
13.3134	-48.6886	40.0889
13.314	-46.2121	40.0986
13.3147	-41.5452	40.1084
13.3151	-39.2214	40.1182
13.3165	-47.5976	40.12793
13.3179	-49.7711	40.1377
13.3189	-49.7415	40.1475
13.31866	-45.4732	40.1572
13.3201	-43.3837	40.167
13.3204	-43.07465	40.1768
13.3218	-40.4096	40.1865
13.3221	-47.0425	40.1963
13.3237	-52.1845	40.2061
13.3235	-48.1822	40.21582
13.326	-43.9483	40.2256
13.326	-40.0419	40.2354
13.3268	-45.0455	40.2451
13.3266	-44.9776	40.2549
13.327	-48.9424	40.2646
13.329	-48.8129	40.2744
13.3296	-48.0433	40.28418
13.3302	-43.31731	40.2939
13.3308	-39.2592	40.3037
13.3315	-42.7486	40.3135
13.333	-47.3289	40.3232
13.3333	-50.9845	40.333
13.3344	-48.0518	40.3428
13.3358	-42.3711	40.3525
13.3361	-43.8451	40.3623
13.3368	-40.2056	40.37207
13.3374	-45.3274	40.3818
13.3383	-47.7234	40.3916
13.3387	-48.8322	40.4014
13.341	-49.4777	40.4111
13.34	-41.0917	40.4209
13.3422	-39.6931	40.4307
13.3417	-45.2942	40.44043
13.3429	-51.3532	40.4502
13.3433	-52.6019	40.46
13.34401	-46.2177	40.4697
13.3463	-44.3818	40.4795
13.3455	-39.1888	40.4893
13.3468	-41.3189	40.499