File: data/processed_data_files/tensile/0.254_hd_uprint_typei_090_r(5).dat
MTS793|BTW|ENU|1|2|.|/|:|1|0|0|A

Data Header:			0.254_hd_uprint_typei_090_r0			Time:	20.0349	s	4/15/2019 3:57:44 PM
Data Acquisition:	Timed
Station Name:	ft40.cfg
Test File Name:	monotonic_0.2540_typei_hd_090_uprint.tst
Displacement	Force	Running Time
mm	N	s
9.97975	-158.958	0.0397949
9.98109	-159.575	0.1081543
9.98743	-157.009	0.176514
9.99285	-152.781	0.244873
9.9993	-151.657	0.313232
10.0046	-151.325	0.3815918
10.0097	-152.469	0.449951
10.0161	-152.3605	0.518311
10.021	-150.642	0.58667
10.0257	-144.729	0.6550293
10.0326	-141.733	0.723389
10.0379	-135.607	0.791748
10.0437	-129.441	0.860107
10.04952	-125.274	0.9284668
10.0542	-124.583	0.996826
10.06076	-120.71	1.06519
10.0668	-122.697	1.13354
10.0722	-124.605	1.2019
10.0782	-122.1082	1.27026
10.0842	-118.05	1.338623
10.089	-114.107	1.40698
10.0954	-108.311	1.47534
10.1006	-102.773	1.5437
10.1065	-98.3148	1.61206
10.1124	-91.8931	1.68042
10.1176	-88.0185	1.74878
10.1243	-90.4517	1.81714
10.1293	-94.0259	1.885498
10.1348	-87.5071	1.95386
10.1405	-85.5391	2.02222
10.1468	-84.9722	2.09058
10.1527	-77.2529	2.15894
10.1582	-70.164	2.22729
10.1634	-67.6045	2.29565
10.1699	-60.49411	2.36401
10.1746	-55.554	2.432373
10.1809	-57.5681	2.50073
10.1858	-58.8744	2.56909
10.1924	-53.7104	2.63745
10.1982	-53.6232	2.70581
10.2032	-52.6559	2.77417
10.2085	-45.9778	2.84253
10.2153	-39.568	2.91089
10.221	-34.7905	2.979248
10.22694	-28.0711	3.04761
10.2308	-23.6782	3.11597
10.2378	-24.943	3.18433
10.2435	-23.4158	3.25269
10.2493	-17.9327	3.32104
10.2554	-18.4471	3.3894
10.2602	-17.24869	3.45776
10.26596	-13.5286	3.526123
10.2716	-7.70473	3.59448
10.278	-3.20288	3.66284
10.2835	4.321372	3.7312
10.2886	10.2482	3.79956
10.2959	9.42104	3.86792
10.2989	14.5933	3.93628
10.3064	17.48175	4.00464
10.3111	14.70562	4.072998
10.3178	16.3077	4.14136
10.32268	19.489	4.20972
10.3282	22.3664	4.27808
10.334	26.1857	4.34644
10.34	36.0101	4.41479
10.3465	40.4942	4.48315
10.3512	43.2986	4.55151
10.3572	51.5469	4.619873
10.364	54.0044	4.68823
10.3693	52.1016	4.75659
10.37431	53.1962	4.82495
10.3794	56.2124	4.89331
10.3858	58.2931	4.96167
10.3913	63.0751	5.03003
10.3969	69.7648	5.09839
10.4033	73.7112	5.166748
10.4096	77.4958	5.23511
10.4137	85.8132	5.30347
10.4192	88.9604	5.37183
10.4253	89.7884	5.44019
10.4313	90.1977	5.50854
10.4361	92.5724	5.5769
10.442	93.5148	5.64526
10.4467	97.1568	5.713623
10.4541	102.489	5.78198
10.4598	106.825	5.85034
10.4658	113.5619	5.9187
10.4717	119.592	5.98706
10.4776	124.264	6.05542
10.4828	128.605	6.12378
10.4884	127.747	6.19214
10.4941	127.9189	6.260498
10.50011	131.104	6.32886
10.5048	133.3363	6.39722
10.5106	134.3385	6.46558
10.5165	138.584	6.53394
10.522	148.287	6.60229
10.5283	152.847	6.67065
10.5331	158.425	6.73901
10.5397	162.57	6.807373
10.5444	163.4277	6.87573
10.5516	164.2851	6.94409
10.5573	166.98	7.01245
10.5626	167.095	7.08081
10.5683	167.772	7.14917
10.57406	171.4632	7.21753
10.579	180.446	7.28589
10.586	183.706	7.354248
10.5914	191.837	7.42261
10.59703	196.597	7.49097
10.60156	197.448	7.55933
10.60796	201.183	7.62769
10.6137	202.187	7.69604
10.6196	201.763	7.7644
10.6257	200.41	7.83276
10.6308	207.053	7.901123
10.6362	214.651	7.96948
10.6424	216.654	8.03784
10.64824	223.483	8.1062
10.6533	229.839	8.17456
10.6587	231.643	8.24292
10.66484	236.591	8.31128
10.6708	239.263	8.37964
10.676	237.451	8.447998
10.6808	235.528	8.51636
10.6875	241.947	8.58472
10.6936	246.607	8.65308
10.699	249.057	8.72144
10.7049	256.202	8.78979
10.71168	263.602	8.85815
10.7161	267.5311	8.92651
10.72087	272.2543	8.994873
10.7272	274.866	9.06323
10.7336	273.355	9.13159
10.7378	271.341	9.19995
10.7448	277.3028	9.26831
10.75	278.777	9.33667
10.7556	282.002	9.40503
10.76117	289.612	9.47339
10.7671	296.67	9.541748
10.7726	301.348	9.61011
10.7774	307.044	9.67847
10.7844	310.516	9.74683
10.7889	308.4906	9.81519
10.7945	309.204	9.88354
10.8016	313.226	9.9519
10.808	311.412	10.0203
10.8127	313.068	10.0886
10.8181	319.631	10.157
10.8244	326.234	10.2253
10.83	333.279	10.2937
10.83543	340.064	10.3621
10.8416	341.736	10.43042
10.8463	342.809	10.4988
10.8533	347.886	10.5671
10.8584	347.33	10.6355
10.864	346.7291	10.7039
10.87	349.101	10.7722
10.8754	352.608	10.8406
10.8813	359.901	10.9089
10.8872	365.082	10.9773
10.8934	371.824	11.0457
10.89877	374.6427	11.114
10.9039	378.973	11.1824
10.9097	382.223	11.2507
10.9155	381.535	11.3191
10.9209	381.542	11.3875
10.9264	381.611	11.4558
10.9304	383.078	11.52417
10.9379	391.338	11.5925
10.9428	397.379	11.6609
10.9497	401.651	11.7292
10.9548	405.729	11.7976
10.9611	411.474	11.866
10.9664	415.133	11.9343
10.9729	414.978	12.0027
10.97758	418.132	12.071
10.9841	416.588	12.1394
10.9884	416.137	12.2078
10.9949	423.11	12.2761
11.0004	427.349	12.3445
11.0067	429.251	12.4128
11.0119	436.035	12.4812
11.0181	445.42	12.5496
11.0228	446.968	12.61792
11.0295	449.109	12.6863
11.0353	452.735	12.7546
11.04005	449.917	12.823
11.046	450.086	12.8914
11.0518	454.643	12.9597
11.0584	458.0481	13.0281
11.0634	460.155	13.0964
11.069	466.6311	13.1648
11.0752	477.755	13.2332
11.081	480.359	13.3015
11.08604	482.8638	13.3699
11.0916	486.706	13.4382
11.0977	483.909	13.5066
11.1023	483.35	13.575
11.1091	487.866	13.6433
11.1139	488.81	13.71167
11.1199	489.547	13.78
11.126	497.546	13.8484
11.131	507.003	13.9167
11.1372	509.073	13.9851
11.1426	514.454	14.0535
11.1491	519.446	14.1218
11.1537	517.342	14.1902
11.1611	517.525	14.2585
11.1662	519.809	14.3269
11.1712	518.24	14.3953
11.1777	516.505	14.4636
11.18234	527.279	14.532
11.1878	534.235	14.6003
11.1947	537.8858	14.6687
11.20118	543.65	14.7371
11.2061	548.9422	14.80542
11.2118	549.569	14.8738
11.21781	550.976	14.9421
11.2233	551.289	15.0105
11.2283	548.694	15.0789
11.2331	548.047	15.1472
11.24	556.466	15.2156
11.246	562.095	15.2839
11.2514	566.065	15.3523
11.2574	573.339	15.4207
11.2625	577.132	15.489
11.269	581.793	15.5574
11.2746	583.046	15.6257
11.2799	582.286	15.6941
11.2851	578.178	15.7625
11.2921	579.745	15.8308
11.2971	585.537	15.89917
11.3029	589.004	15.9675
11.3086	594.752	16.0359
11.3139	600.224	16.1042
11.32	604.749	16.1726
11.3262	610.491	16.241
11.3317	613.407	16.3093
11.3385	611.13	16.3777
11.34242	610.198	16.446
11.3481	610.859	16.5144
11.3539	613.875	16.5828
11.3604	615.28	16.6511
11.365	621.562	16.7195
11.3706	627.5722	16.7878
11.3762	632.5592	16.8562
11.382	640.953	16.9246
11.3885	643.203	16.99292
11.3938	642.474	17.0613
11.3988	641.398	17.1296
11.4046	643.16	17.198
11.4109	643.874	17.2664
11.4165	644.6889	17.3347
11.4224	649.831	17.4031
11.42736	652.679	17.4714
11.4331	660.873	17.5398
11.4391	666.684	17.6082
11.4447	668.174	17.6765
11.4502	669.464	17.7449
11.4556	672.531	17.8132
11.4621	674.857	17.8816
11.4675	671.24	17.95
11.4742	672.725	18.0183
11.4789	675.936	18.08667
11.4839	676.984	18.155
11.4906	686.683	18.2234
11.497	693.891	18.2917
11.5012	694.804	18.3601
11.5063	696.788	18.4285
11.514	703.747	18.4968
11.5185	705.744	18.5652
11.52562	699.414	18.6335
11.5311	701.839	18.7019
11.5357	702.859	18.7703
11.5417	702.745	18.8386
11.5478	709.998	18.907
11.5537	715.768	18.9753
11.5579	717.46	19.0437
11.5655	722.578	19.1121
11.5711	731.314	19.18042
11.5752	731.81	19.2488
11.58154	730.9931	19.3171
11.5874	731.136	19.3855
11.5929	729.358	19.4539
11.5987	730.733	19.5222
11.6044	735.345	19.5906
11.60944	740.5	19.6589
11.616	742.2428	19.7273
11.621	747.78	19.7957
11.6273	755.606	19.864
11.6329	756.446	19.9324
11.6386	755.971	20.0007
11.64	751.854	20.03

Data Header:			0.254_hd_uprint_typei_090_r0			Time:	33.7307	s	4/15/2019 3:57:58 PM
Data Acquisition:	Timed
Station Name:	ft40.cfg
Test File Name:	monotonic_0.2540_typei_hd_090_uprint.tst
Displacement	Force	Running Time
mm	N	s
11.6421	756.405	20.0398
11.6464	751.993	20.0886
11.6509	755.986	20.1375
11.654	766.245	20.1863
11.6587	766.795	20.2351
11.6617	758.846	20.2839
11.6662	757.399	20.3328
11.67	767.366	20.3816
11.6739	775.344	20.43042
11.6786	771.406	20.4792
11.6819	763.772	20.5281
11.6871	766.837	20.5769
11.6905	777.418	20.6257
11.69465	782.707	20.6746
11.6993	778.454	20.7234
11.7034	775.501	20.7722
11.7069	782.01	20.821
11.7108	787.921	20.8699
11.7149	787.727	20.9187
11.7197	781.561	20.9675
11.7227	782.472	21.0164
11.7269	792.639	21.0652
11.7309	797.62	21.114
11.7353	794.407	21.1628
11.7393	786.542	21.21167
11.7429	791.02	21.2605
11.7475	800.487	21.3093
11.7518	802.316	21.3582
11.756	798.02	21.407
11.75928	798.06	21.4558
11.7648	807.238	21.5046
11.7681	810.304	21.5535
11.7726	807.671	21.6023
11.7752	802.198	21.6511
11.7804	805.4538	21.7
11.7853	815.104	21.7488
11.788	816.714	21.7976
11.79137	812.144	21.8464
11.796	809.463	21.8953
11.8013	814.638	21.9441
11.8043	821.2337	21.99292
11.8088	821.1192	22.0417
11.8129	817.011	22.0906
11.8177	819.754	22.1394
11.8224	827.564	22.1882
11.8253	829.586	22.2371
11.82825	824.187	22.2859
11.8325	823.427	22.3347
11.8378	828.3642	22.3835
11.8418	835.107	22.4324
11.8451	834.904	22.4812
11.8497	828.97	22.53
11.8527	829.346	22.5789
11.8583	834.325	22.6277
11.8617	838.3797	22.6765
11.865	834.223	22.7253
11.8694	832.522	22.77417
11.8735	839.949	22.823
11.8773	846.14	22.8718
11.8826	847.219	22.9207
11.8858	838.911	22.9695
11.8898	840.443	23.0183
11.894	846.559	23.0671
11.8974	849.623	23.116
11.90154	845.578	23.1648
11.9066	843.392	23.2136
11.9114	848.451	23.2625
11.9145	853.442	23.3113
11.9183	851.082	23.3601
11.9231	848.336	23.4089
11.9271	847.382	23.4578
11.9315	856.258	23.5066
11.93542	862.153	23.55542
11.93885	858.009	23.6042
11.9433	850.665	23.6531
11.947	854.463	23.7019
11.9502	863.001	23.7507
11.9548	864.66	23.7996
11.9592	856.74	23.8484
11.9623	854.528	23.8972
11.967	862.055	23.946
11.97228	866.783	23.9949
11.9751	864.2	24.0437
11.9794	856.396	24.0925
11.98418	859.456	24.1414
11.9876	870.0838	24.1902
11.9922	872.852	24.239
11.9961	865.8858	24.2878
11.9996	862.1936	24.33667
12.0041	866.597	24.3855
12.008	873.364	24.4343
12.0113	871.126	24.4832
12.0162	864.778	24.532
12.021	864.211	24.5808
12.0243	871.594	24.6296
12.0295	876.624	24.6785
12.0328	868.857	24.7273
12.0354	862.563	24.7761
12.0413	867.212	24.825
12.0449	875.086	24.8738
12.0486	878.69	24.9226
12.0527	871.2204	24.9714
12.0566	868.007	25.0203
12.0612	873.285	25.0691
12.0642	879.581	25.11792
12.0688	873.2323	25.1667
12.07249	868.199	25.2156
12.0766	868.616	25.2644
12.0811	875.624	25.3132
12.0849	879.864	25.3621
12.0888	870.372	25.4109
12.0932	863.9754	25.4597
12.0975	870.646	25.5085
12.1008	878.032	25.5574
12.1058	877.356	25.6062
12.1097	871.257	25.655
12.1141	869.486	25.7039
12.1178	876.551	25.7527
12.1216	878.893	25.8015
12.1259	875.143	25.8503
12.1307	868.306	25.89917
12.1343	870.6048	25.948
12.1388	876.217	25.9968
12.1427	877.531	26.0457
12.1464	870.981	26.0945
12.1496	867.232	26.1433
12.1543	869.727	26.1921
12.15896	876.27	26.241
12.163	874.435	26.2898
12.167	870.3092	26.3386
12.1709	871.346	26.3875
12.1741	876.375	26.4363
12.17884	874.568	26.4851
12.1833	869.628	26.5339
12.1875	866.364	26.5828
12.1914	871.482	26.6316
12.1948	876.107	26.68042
12.1979	872.5368	26.7292
12.2039	867.914	26.7781
12.2082	865.09	26.8269
12.212	871.979	26.8757
12.2156	871.904	26.9246
12.2195	866.052	26.9734
12.2239	864.068	27.0222
12.228	870.24	27.071
12.2322	875.569	27.1199
12.2361	871.166	27.1687
12.2396	864.197	27.2175
12.2444	863.596	27.2664
12.2475	869.975	27.3152
12.2526	872.052	27.364
12.2563	865.574	27.4128
12.25977	862.431	27.46167
12.2646	864.781	27.5105
12.2687	866.88	27.5593
12.2719	864.933	27.6082
12.2774	859.634	27.657
12.2806	860.184	27.7058
12.2838	867.506	27.7546
12.2884	870.897	27.8035
12.2936	863.333	27.8523
12.2965	856.664	27.9011
12.3011	860.463	27.95
12.3049	867.37	27.9988
12.3084	866.223	28.0476
12.3131	858.898	28.0964
12.3175	856.168	28.1453
12.3214	864.05	28.1941
12.3244	863.618	28.24292
12.32945	857.344	28.2917
12.3336	851.397	28.3406
12.3375	856.898	28.3894
12.3414	863.678	28.4382
12.3462	865.559	28.4871
12.3505	858.198	28.5359
12.3531	851.754	28.5847
12.3593	858.466	28.6335
12.36272	863.563	28.6824
12.3661	860.192	28.7312
12.37076	851.892	28.78
12.3743	852.497	28.8289
12.3777	859.893	28.8777
12.3818	861.261	28.9265
12.3865	851.649	28.9753
12.3898	846.116	29.02417
12.3949	853.034	29.073
12.3983	860.352	29.1218
12.4031	860.497	29.1707
12.40745	851.776	29.2195
12.4104	847.733	29.2683
12.4153	855.676	29.3171
12.4174	860.444	29.366
12.4222	855.768	29.4148
12.4272	849.074	29.4636
12.431	850.625	29.5125
12.4354	858.0968	29.5613
12.4397	858.095	29.6101
12.4431	848.248	29.6589
12.4476	842.3631	29.7078
12.4521	850.515	29.7566
12.4563	856.427	29.80542
12.4602	853.015	29.8542
12.4633	846.701	29.9031
12.4674	847.56	29.9519
12.4719	853.889	30.0007
12.4775	857.174	30.0496
12.4806	848.7085	30.0984
12.4842	844.971	30.1472
12.488	847.844	30.196
12.4927	855.038	30.2449
12.4967	852.772	30.2937
12.5001	843.596	30.3425
12.5054	841.9566	30.3914
12.50865	847.053	30.4402
12.513	853.637	30.489
12.5167	848.118	30.5378
12.5214	841.313	30.58667
12.5244	846.646	30.6355
12.52876	851.352	30.6843
12.53356	851.058	30.7332
12.53728	844.398	30.782
12.54089	840.73	30.8308
12.5456	846.837	30.8796
12.5488	851.584	30.9285
12.5533	847.263	30.9773
12.5578	840.92	31.0261
12.5607	838.598	31.075
12.5669	845.726	31.1238
12.569	846.6889	31.1726
12.5725	840.7641	31.2214
12.5773	839.745	31.2703
12.5822	843.502	31.3191
12.5856	847.278	31.36792
12.5899	843.439	31.4167
12.5939	838.158	31.4656
12.5987	837.671	31.5144
12.6026	844.797	31.5632
12.6058	844.037	31.6121
12.6098	837.903	31.6609
12.6147	833.3443	31.7097
12.61813	825.7	31.7585
12.6273	-50.729	31.8074
12.6279	-46.5873	31.8562
12.6312	-53.37674	31.905
12.6356	-48.8492	31.9539
12.6402	-44.53286	32.0027
12.6429	-40.8539	32.0515
12.6487	-47.5795	32.1003
12.6516	-51.9226	32.14917
12.6553	-47.2648	32.198
12.6596	-41.908	32.2468
12.66374	-42.4652	32.2957
12.6676	-49.2592	32.3445
12.6696	-49.0068	32.3933
12.6754	-42.966	32.4421
12.6793	-44.2015	32.491
12.6837	-49.4173	32.5398
12.6877	-55.08065	32.5886
12.69174	-49.0893	32.6375
12.69717	-41.2383	32.6863
12.7006	-42.7801	32.7351
12.7049	-50.5494	32.7839
12.7075	-53.3574	32.8328
12.7123	-44.6763	32.8816
12.7168	-41.8018	32.93042
12.72114	-47.2111	32.9792
12.7241	-51.3543	33.0281
12.7286	-48.7036	33.0769
12.7321	-42.2972	33.1257
12.7357	-44.1562	33.1746
12.7401	-52.3022	33.2234
12.7446	-56.4906	33.2722
12.7494	-47.23682	33.321
12.7541	-40.9686	33.3699
12.75732	-44.0556	33.4187
12.7604	-53.0831	33.4675
12.7652	-51.6223	33.5164
12.7694	-42.01292	33.5652
12.77376	-41.6129	33.614
12.7764	-48.4059	33.6628
12.7816	-52.1239	33.71167
12.7833	-49.37833	33.7214