File: data/processed_data_files/tensile/0.254_hd_dimension_typei_4545_r(3).dat
MTS793|BTW|ENU|1|2|.|/|:|1|0|0|A

Data Header:			0.254_hd_dimension_typei_4545_r0			Time:	20.0181	s	4/15/2019 3:12:21 PM
Data Acquisition:	Timed
Station Name:	ft40.cfg
Test File Name:	monotonic_0.2540_typei_hd_4545_dimension.tst
Displacement	Force	Running Time
mm	N	s
9.98059	-128.632	0.0224609
9.9829	-127.071	0.0908203
9.98771	-120.808	0.15918
9.99505	-117.597	0.227539
10.0002	-112.974	0.295898
10.0058	-104.204	0.364258
10.01233	-101.4761	0.432617
10.0172	-96.2208	0.500977
10.023	-93.7355	0.569336
10.0283	-93.7255	0.637695
10.03421	-96.6765	0.706055
10.0396	-94.00985	0.774414
10.0461	-90.574	0.842773
10.0512	-87.1926	0.911133
10.0577	-83.5817	0.979492
10.0624	-76.0365	1.04785
10.06769	-72.3363	1.11621
10.0746	-63.9268	1.18457
10.0796	-62.0521	1.25293
10.08459	-60.78495	1.32129
10.0914	-60.9566	1.38965
10.0969	-60.0127	1.45801
10.1037	-59.4113	1.52637
10.1092	-58.8738	1.59473
10.1142	-51.7734	1.66309
10.1196	-47.1023	1.73145
10.126	-41.267	1.7998
10.1314	-33.99931	1.86816
10.1377	-29.1608	1.93652
10.1416	-31.1286	2.00488
10.1498	-32.0558	2.07324
10.1541	-24.9143	2.1416
10.1594	-26.61742	2.20996
10.1654	-25.5854	2.27832
10.1715	-21.7658	2.34668
10.178	-17.1395	2.41504
10.1829	-13.4538	2.4834
10.1873	-3.421016	2.55176
10.1937	3.30872	2.62012
10.1997	3.72708	2.68848
10.2056	2.77667	2.75684
10.2106	8.98124	2.8252
10.2169	9.49415	2.89355
10.2229	5.58124	2.96191
10.22902	9.61345	3.03027
10.2336	16.7634	3.09863
10.23916	17.8816	3.16699
10.246	25.0815	3.23535
10.2505	33.4149	3.30371
10.2566	36.4113	3.37207
10.2632	36.8727	3.44043
10.268	42.9209	3.50879
10.2735	44.1221	3.57715
10.2804	41.9465	3.64551
10.2856	43.8718	3.71387
10.2917	47.0624	3.78223
10.29661	50.6406	3.85059
10.3018	55.3421	3.91895
10.3084	62.6447	3.9873
10.3133	67.6371	4.05566
10.3202	70.6721	4.12402
10.3252	76.3032	4.19238
10.3306	78.0617	4.26074
10.3366	75.9016	4.3291
10.34281	77.06768	4.39746
10.3466	79.9939	4.46582
10.3532	82.2104	4.53418
10.3591	86.419	4.60254
10.3641	92.53	4.6709
10.36992	97.3862	4.73926
10.3762	100.575	4.80762
10.3814	108.2985	4.87598
10.3869	112.845	4.94434
10.3929	113.897	5.0127
10.3989	113.506	5.08105
10.4048	113.948	5.14941
10.4104	115.659	5.21777
10.4167	117.264	5.28613
10.4221	123.505	5.35449
10.4275	126.302	5.42285
10.4336	133.503	5.49121
10.4383	141.521	5.55957
10.4441	143.247	5.62793
10.45	143.785	5.69629
10.4554	147.787	5.76465
10.4613	145.431	5.83301
10.46744	145.406	5.90137
10.4734	149.805	5.96973
10.4791	153.4071	6.03809
10.4836	155.497	6.10645
10.491	162.2444	6.1748
10.4952	173.341	6.24316
10.501	174.388	6.31152
10.5074	178.211	6.37988
10.5132	182.312	6.44824
10.5187	179.117	6.5166
10.52412	180.075	6.58496
10.5295	182.156	6.65332
10.5344	184.751	6.72168
10.5417	185.653	6.79004
10.546	190.911	6.8584
10.5522	203.392	6.92676
10.559	207.324	6.99512
10.5632	211.021	7.06348
10.56995	215.467	7.13184
10.5744	215.474	7.2002
10.581	213.487	7.26855
10.5873	214.007	7.33691
10.5925	219.066	7.40527
10.5994	216.1998	7.47363
10.6051	221.453	7.54199
10.6092	232.812	7.61035
10.61491	239.165	7.67871
10.621	241.962	7.74707
10.6269	247.959	7.81543
10.6319	250.031	7.88379
10.6381	248.028	7.95215
10.6429	248.508	8.02051
10.6493	248.354	8.08887
10.6555	247.701	8.15723
10.6606	251.719	8.22559
10.6663	262.906	8.29395
10.67228	268.069	8.3623
10.6779	273.065	8.43066
10.6833	279.262	8.49902
10.6894	282.587	8.56738
10.6952	284.571	8.63574
10.7004	282.6424	8.7041
10.7055	281.638	8.77246
10.71163	281.959	8.84082
10.71757	283.314	8.90918
10.7228	290.651	8.97754
10.72878	297.292	9.0459
10.7345	301.3472	9.11426
10.7411	308.223	9.18262
10.7461	311.972	9.25098
10.7514	317.606	9.31934
10.758	318.944	9.3877
10.7631	316.0668	9.45605
10.7689	312.8121	9.52441
10.7746	315.159	9.59277
10.7797	320.759	9.66113
10.7872	323.482	9.72949
10.7916	333.092	9.79785
10.7976	339.121	9.86621
10.8031	343.585	9.93457
10.81	349.911	10.00293
10.8148	352.007	10.0713
10.8201	351.1651	10.1396
10.8255	345.011	10.208
10.8321	345.8035	10.2764
10.8367	351.965	10.3447
10.8435	353.622	10.4131
10.84861	359.65	10.4814
10.8547	367.941	10.5498
10.8603	373.67	10.6182
10.8666	378.015	10.6865
10.8717	384.217	10.7549
10.8781	385.56	10.8232
10.88275	378.673	10.8916
10.8874	378.753	10.96
10.8941	383.701	11.02832
10.9003	384.363	11.09668
10.90626	387.322	11.165
10.9114	395.061	11.2334
10.9165	402.425	11.3018
10.9237	407.69	11.3701
10.9286	414.328	11.4385
10.9342	416.542	11.5068
10.9403	412.209	11.5752
10.9452	411.297	11.6436
10.951	415.463	11.7119
10.9579	414.859	11.7803
10.96313	416.617	11.8486
10.9677	423.866	11.917
10.9737	428.854	11.9854
10.98	436.585	12.0537
10.9857	442.958	12.12207
10.9917	445.74	12.19043
10.996	446.271	12.2588
11.0025	442.7377	12.3271
11.00811	446.209	12.3955
11.0142	445.315	12.4639
11.0193	446.747	12.5322
11.02499	450.796	12.6006
11.0313	455.948	12.6689
11.0365	464.832	12.7373
11.0432	471.998	12.8057
11.0476	474.981	12.874
11.05322	474.533	12.9424
11.0592	476.862	13.0107
11.065	478.622	13.0791
11.07007	475.794	13.1475
11.0761	476.805	13.21582
11.08192	478.886	13.28418
11.0874	483.868	13.3525
11.093	490.0336	13.4209
11.0992	498.609	13.4893
11.105	503.299	13.5576
11.1099	503.551	13.626
11.1164	508.491	13.6943
11.1214	511.019	13.7627
11.1277	508.064	13.8311
11.1331	507.0123	13.8994
11.13947	509.7	13.9678
11.1443	510.674	14.0361
11.1514	515.9668	14.1045
11.15641	525.334	14.1729
11.1618	530.835	14.2412
11.1679	531.406	14.30957
11.1738	536.572	14.37793
11.1782	542.076	14.4463
11.1857	538.012	14.5146
11.1902	537.404	14.583
11.197	538.064	14.6514
11.2021	537.188	14.7197
11.2067	544.339	14.7881
11.2129	547.596	14.8564
11.2193	554.803	14.9248
11.225	557.544	14.9932
11.2305	563.316	15.0615
11.2365	570.29	15.1299
11.2424	569.581	15.1982
11.2471	566.125	15.2666
11.2531	568.152	15.335
11.2582	567.3678	15.40332
11.26461	569.06	15.47168
11.26968	573.197	15.54
11.2756	580.2605	15.6084
11.2818	583.58	15.6768
11.2876	588.3291	15.7451
11.29293	598.14	15.8135
11.2994	600.1413	15.8818
11.3057	596.194	15.9502
11.30958	597.019	16.0186
11.315	594.964	16.0869
11.3221	595.95	16.1553
11.3273	597.621	16.2236
11.3335	604.294	16.292
11.3383	607.879	16.3604
11.3434	613.779	16.4287
11.3501	623.045	16.49707
11.3555	623.709	16.56543
11.3616	625.486	16.6338
11.367	625.086	16.7021
11.37248	622.325	16.7705
11.3786	624.178	16.8389
11.3843	625.408	16.9072
11.3894	627.399	16.9756
11.3947	631.696	17.0439
11.4006	638.097	17.1123
11.4067	645.773	17.1807
11.4129	650.233	17.249
11.4179	652.352	17.3174
11.4244	653.3642	17.3857
11.43003	647.973	17.4541
11.4359	651.396	17.5225
11.4412	652.7655	17.59082
11.4468	652.071	17.65918
11.45308	653.274	17.7275
11.4597	660.726	17.7959
11.464	669.951	17.8643
11.4701	672.5473	17.9326
11.475	677.6795	18.001
11.4791	680.63	18.0693
11.4866	678.481	18.1377
11.493	677.727	18.2061
11.4972	677.674	18.2744
11.5034	676.688	18.3428
11.5095	675.352	18.4111
11.5147	682.035	18.4795
11.5207	691.113	18.5479
11.5266	694.119	18.6162
11.5323	700.205	18.68457
11.53932	705.822	18.75293
11.5432	705.168	18.8213
11.5493	704.441	18.8896
11.5555	703.647	18.958
11.5603	702.001	19.0264
11.5663	698.842	19.0947
11.5731	705.953	19.1631
11.57654	714.026	19.2314
11.5829	717.392	19.2998
11.5889	721.927	19.3682
11.5955	726.862	19.4365
11.6009	729.34	19.5049
11.6061	729.591	19.5732
11.612	728.846	19.6416
11.6174	726.756	19.71
11.62258	722.089	19.77832
11.6289	725.201	19.84668
11.6351	733.596	19.915
11.6408	737.692	19.9834
11.643	738.427	20.0127

Data Header:			0.254_hd_dimension_typei_4545_r0			Time:	40.0178	s	4/15/2019 3:12:41 PM
Data Acquisition:	Timed
Station Name:	ft40.cfg
Test File Name:	monotonic_0.2540_typei_hd_4545_dimension.tst
Displacement	Force	Running Time
mm	N	s
11.6434	736.377	20.0225
11.6487	737.883	20.09082
11.6553	740.58	20.15918
11.6608	738.763	20.2275
11.6665	744.65	20.2959
11.6724	753.9776	20.3643
11.6781	760.02	20.4326
11.6838	760.168	20.501
11.6896	762.045	20.5693
11.6947	762.178	20.6377
11.7013	760.709	20.7061
11.7061	759.087	20.7744
11.7124	760.564	20.8428
11.7172	759.481	20.9111
11.7242	762.397	20.9795
11.72924	772.301	21.0479
11.7351	778.431	21.1162
11.7405	778.927	21.18457
11.7467	784.9234	21.25293
11.7531	783.702	21.3213
11.7569	784.323	21.3896
11.7632	781.899	21.458
11.76883	780.516	21.5264
11.7757	778.283	21.5947
11.7804	779.797	21.6631
11.78637	788.915	21.7314
11.7922	795.141	21.7998
11.7981	799.338	21.8682
11.8029	804.274	21.9365
11.8089	804.944	22.0049
11.8151	805.946	22.0732
11.82	803.583	22.1416
11.8249	800.247	22.21
11.831	798.331	22.27832
11.8368	798.945	22.34668
11.8428	805.741	22.415
11.8486	808.579	22.4834
11.8541	815.304	22.5518
11.8592	819.661	22.6201
11.8651	821.918	22.6885
11.8709	823.0882	22.7568
11.8773	825.091	22.8252
11.8826	818.914	22.8936
11.8879	816.54	22.9619
11.895	816.031	23.0303
11.9005	821.864	23.0986
11.9057	823.928	23.167
11.9107	830.067	23.2354
11.9166	835.847	23.3037
11.923	837.74	23.37207
11.9288	841.123	23.44043
11.9335	842.663	23.5088
11.9397	838.748	23.5771
11.9457	833.174	23.6455
11.9514	831.977	23.7139
11.9571	835.887	23.7822
11.9628	835.311	23.8506
11.9679	840.688	23.9189
11.9745	848.467	23.9873
11.9795	850.642	24.0557
11.9849	854.682	24.124
11.9918	858.75	24.1924
11.9962	857.862	24.2607
12.0032	848.628	24.3291
12.0081	848.173	24.3975
12.0131	853.671	24.46582
12.02	850.944	24.53418
12.0257	851.819	24.6025
12.0318	860.333	24.6709
12.0368	863.221	24.7393
12.0425	867.85	24.8076
12.0478	870.34	24.876
12.0551	872.844	24.9443
12.0596	866.6814	25.0127
12.064	862.815	25.0811
12.0708	866.169	25.1494
12.0781	863.603	25.2178
12.0821	863.122	25.2861
12.087	868.982	25.3545
12.09406	872.711	25.4229
12.0995	876.981	25.4912
12.1049	880.657	25.55957
12.1106	884.585	25.62793
12.1156	879.581	25.6963
12.1217	875.971	25.7646
12.1278	878.471	25.833
12.1329	875.511	25.9014
12.139	873.982	25.9697
12.1458	876.737	26.0381
12.1519	880.356	26.1064
12.157	886.595	26.1748
12.1619	889.472	26.2432
12.168	892.009	26.3115
12.1725	890.0694	26.3799
12.1792	891.367	26.4482
12.1847	891.082	26.5166
12.1908	885.902	26.585
12.196	884.307	26.65332
12.2027	885.362	26.72168
12.2072	885.481	26.79
12.2131	892.487	26.8584
12.2194	896.59	26.9268
12.22422	898.782	26.9951
12.2296	897.534	27.0635
12.2357	900.345	27.1318
12.242	899.034	27.2002
12.2473	894.297	27.2686
12.2523	893.228	27.3369
12.2576	891.8645	27.4053
12.2647	891.086	27.4736
12.2699	896.044	27.542
12.2761	900.255	27.6104
12.2813	903.734	27.6787
12.287	902.465	27.74707
12.29226	907.212	27.81543
12.298	908.547	27.8838
12.3049	903.646	27.9521
12.3094	900.687	28.0205
12.3162	900.729	28.0889
12.3205	897.357	28.1572
12.3273	900.486	28.2256
12.3319	905.146	28.2939
12.338	907.206	28.3623
12.3448	906.181	28.4307
12.3501	912.8866	28.499
12.3566	916.227	28.5674
12.3616	911.718	28.6357
12.3667	908.477	28.7041
12.3723	906.966	28.7725
12.3779	904.469	28.84082
12.3838	902.146	28.90918
12.3896	905.913	28.9775
12.3957	908.077	29.0459
12.4001	908.915	29.1143
12.4064	915.663	29.1826
12.4118	920.742	29.251
12.4177	918.825	29.3193
12.424	914.819	29.3877
12.43	912.873	29.4561
12.4353	910.445	29.5244
12.44146	909.375	29.5928
12.4467	908.538	29.6611
12.4528	909.773	29.7295
12.4584	911.897	29.7979
12.4636	916.1	29.8662
12.4692	922.6214	29.93457
12.4752	921.884	30.00293
12.4818	919.987	30.0713
12.4866	917.705	30.1396
12.4928	915.243	30.208
12.49734	914.708	30.2764
12.5041	912.516	30.3447
12.50936	912.935	30.4131
12.5147	913.54	30.4814
12.5207	919.863	30.5498
12.5275	924.341	30.6182
12.5322	927.121	30.6865
12.5379	926.703	30.7549
12.5437	925.16	30.8232
12.5488	920.45	30.8916
12.5543	918.671	30.96
12.5606	916.801	31.02832
12.5662	913.757	31.09668
12.5718	914.4494	31.165
12.578	920.656	31.2334
12.5832	925.434	31.3018
12.58836	927.955	31.3701
12.5948	931.804	31.4385
12.60092	931.138	31.5068
12.6068	925.8183	31.5752
12.6123	924.614	31.6436
12.6172	922.234	31.7119
12.6232	918.4574	31.7803
12.6284	916.0415	31.8486
12.63383	922.425	31.917
12.6397	926.3208	31.9854
12.6459	927.996	32.0537
12.652	934.468	32.12207
12.6571	935.158	32.19043
12.6635	931.74	32.2588
12.6676	928.5069	32.3271
12.6746	929.234	32.3955
12.68139	922.234	32.4639
12.6854	917.641	32.5322
12.6927	924.409	32.6006
12.6972	927.79	32.6689
12.7027	929.083	32.7373
12.7088	933.44	32.8057
12.71522	936.893	32.874
12.7198	935.14	32.9424
12.7262	932.972	33.0107
12.7319	931.993	33.0791
12.7378	926.28	33.1475
12.7438	921.281	33.21582
12.748	922.84	33.28418
12.7533	929.763	33.3525
12.76089	930.0271	33.4209
12.7661	931.531	33.4893
12.7718	938.413	33.5576
12.777	939.086	33.626
12.7827	936.774	33.6943
12.7882	934.883	33.7627
12.7941	930.461	33.8311
12.8006	925.767	33.8994
12.8063	925.243	33.9678
12.8113	927.395	34.0361
12.8175	929.636	34.1045
12.82344	931.852	34.1729
12.8288	936.398	34.2412
12.8341	939.253	34.30957
12.8399	940.266	34.37793
12.8442	937.829	34.4463
12.8508	931.495	34.5146
12.8567	928.905	34.583
12.8632	929.227	34.6514
12.8682	929.355	34.7197
12.8742	927.962	34.7881
12.8791	931.1333	34.8564
12.8849	934.573	34.9248
12.8901	938.594	34.9932
12.897	942.548	35.0615
12.9018	941.162	35.1299
12.9078	935.82	35.1982
12.9129	932.8	35.2666
12.9194	931.812	35.335
12.9243	929.71	35.40332
12.9306	927.95	35.47168
12.9372	930.328	35.54
12.9416	935.465	35.6084
12.9479	938.779	35.6768
12.9545	940.989	35.7451
12.9597	945.335	35.8135
12.9646	939.916	35.8818
12.9715	936.085	35.9502
12.9767	935.477	36.0186
12.9822	934.345	36.0869
12.9877	928.839	36.1553
12.9938	931.5625	36.2236
12.999	934.159	36.292
13.0052	934.739	36.3604
13.0105	939.875	36.4287
13.0167	944.721	36.49707
13.02137	942.437	36.56543
13.0268	939.049	36.6338
13.03357	937.568	36.7021
13.0388	936.2511	36.7705
13.0452	930.469	36.8389
13.04977	931.0578	36.9072
13.0558	932.663	36.9756
13.0617	934.176	37.0439
13.0671	937.691	37.1123
13.0737	942.94	37.1807
13.079	944.092	37.249
13.08456	940.843	37.3174
13.0899	937.952	37.3857
13.0968	939.114	37.4541
13.1016	934.435	37.5225
13.1071	931.477	37.59082
13.112	931.897	37.65918
13.1187	932.1059	37.7275
13.1259	937.779	37.7959
13.1304	941.613	37.8643
13.13542	941.236	37.9326
13.1409	940.7594	38.001
13.1466	941.415	38.0693
13.1533	941.984	38.1377
13.1583	938.52	38.2061
13.1644	933.528	38.2744
13.1705	933.8941	38.3428
13.1757	933.227	38.4111
13.1815	936.02	38.4795
13.1871	941.417	38.5479
13.1928	939.889	38.6162
13.1969	942.1814	38.68457
13.20383	944.743	38.75293
13.21074	944.568	38.8213
13.216	940.224	38.8896
13.2205	936.844	38.958
13.2274	933.245	39.0264
13.2323	932.876	39.0947
13.2392	936.532	39.1631
13.2443	940.481	39.2314
13.25	939.654	39.2998
13.2552	940.884	39.3682
13.2616	945.97	39.4365
13.2669	945.909	39.5049
13.2733	941.681	39.5732
13.2781	938.868	39.6416
13.2844	938.023	39.71
13.2897	932.936	39.77832
13.2942	934.9104	39.84668
13.3008	938.4	39.915
13.30603	938.394	39.9834
13.309	942.536	40.0127

Data Header:			0.254_hd_dimension_typei_4545_r0			Time:	60.0176	s	4/15/2019 3:13:01 PM
Data Acquisition:	Timed
Station Name:	ft40.cfg
Test File Name:	monotonic_0.2540_typei_hd_4545_dimension.tst
Displacement	Force	Running Time
mm	N	s
13.3096	937.626	40.0225
13.316	934.691	40.09082
13.3217	934.87	40.15918
13.32778	935.729	40.2275
13.333	939.772	40.2959
13.338	942.986	40.3643
13.3447	946.278	40.4326
13.3492	943.122	40.501
13.3559	943.957	40.5693
13.3609	942.895	40.6377
13.3665	938.866	40.7061
13.3726	935.931	40.7744
13.3778	936.143	40.8428
13.3849	935.631	40.9111
13.3895	935.871	40.9795
13.39565	941.117	41.0479
13.401	943.543	41.1162
13.4067	942.809	41.18457
13.4125	944.464	41.25293
13.4183	947.936	41.3213
13.4237	942.164	41.3896
13.4292	937.123	41.458
13.43593	936.796	41.5264
13.4418	934.05	41.5947
13.4469	934.288	41.6631
13.4529	937.941	41.7314
13.4582	944.171	41.7998
13.4641	941.231	41.8682
13.4699	941.587	41.9365
13.4749	948.0929	42.0049
13.4813	944.904	42.0732
13.4862	939.851	42.1416
13.4924	938.065	42.21
13.49818	936.342	42.27832
13.5039	935.6261	42.34668
13.5091	934.568	42.415
13.5149	941.65	42.4834
13.521	941.062	42.5518
13.5274	942.435	42.6201
13.5321	946.3468	42.6885
13.5368	947.478	42.7568
13.5439	942.865	42.8252
13.5501	940.065	42.8936
13.5544	938.2854	42.9619
13.5605	936.785	43.0303
13.5657	936.189	43.0986
13.572	938.912	43.167
13.57775	938.652	43.2354
13.5835	941.855	43.3037
13.5896	947.074	43.37207
13.595	948.044	43.44043
13.6007	946.01	43.5088
13.6063	941.04	43.5771
13.6126	939.309	43.6455
13.6174	936.899	43.7139
13.6223	936.818	43.7822
13.6291	937.687	43.8506
13.6355	938.817	43.9189
13.6415	940.2738	43.9873
13.64538	946.1	44.0557
13.6518	947.159	44.124
13.6581	946.06	44.1924
13.6625	946.242	44.2607
13.6684	941.881	44.3291
13.6744	936.695	44.3975
13.6805	937.809	44.46582
13.6865	936.361	44.53418
13.6922	934.5907	44.6025
13.6962	936.111	44.6709
13.7035	942.948	44.7393
13.7083	945.784	44.8076
13.7142	945.778	44.876
13.7209	946.022	44.9443
13.7255	942.3905	45.0127
13.7308	939.431	45.0811
13.7377	938.526	45.1494
13.7429	939.025	45.2178
13.7475	934.405	45.2861
13.75389	934.323	45.3545
13.7597	941.831	45.4229
13.7654	945.29	45.4912
13.7705	943.4	45.55957
13.7782	947.008	45.62793
13.7822	947.804	45.6963
13.7883	942.018	45.7646
13.7939	939.297	45.833
13.8002	939.1972	45.9014
13.8067	934.855	45.9697
13.8105	931.628	46.0381
13.818	938.809	46.1064
13.8231	943.844	46.1748
13.8285	945.63	46.2432
13.8344	947.419	46.3115
13.841	949.115	46.3799
13.8459	946.016	46.4482
13.85104	942.05	46.5166
13.8579	938.924	46.585
13.8621	936.159	46.65332
13.8689	933.763	46.72168
13.8732	934.591	46.79
13.8798	940.581	46.8584
[...]
14.3359	945.147	52.3271
14.341	938.568	52.3955
14.347	936.289	52.4639
14.3527	938.638	52.5322
14.3587	936.048	52.6006
14.3641	939.1496	52.6689
14.3702	943.037	52.7373
14.3758	945.567	52.8057
14.3813	943.005	52.874
14.3872	944.416	52.9424
14.3923	948.256	53.0107
14.39738	940.862	53.0791
14.4037	935.837	53.1475
14.4098	937.029	53.21582
14.4157	936.297	53.28418
14.42089	938.535	53.3525
14.4272	939.829	53.4209
14.4329	944.442	53.4893
14.43816	943.061	53.5576
14.4435	942.892	53.626
14.4508	948.651	53.6943
14.45517	944.094	53.7627
14.461	939.311	53.8311
14.46666	937.403	53.8994
14.4724	937.18	53.9678
14.4775	934.335	54.0361
14.4833	938.652	54.1045
14.4896	941.638	54.1729
14.4952	942.441	54.2412
14.5003	942.3374	54.30957
14.507	948.895	54.37793
14.5122	945.815	54.4463
14.5178	941.826	54.5146
14.5243	938.389	54.583
14.5293	936.176	54.6514
14.53456	935.625	54.7197
14.5402	936.733	54.7881
14.5448	938.949	54.8564
14.5517	941.548	54.9248
14.5585	942.415	54.9932
14.5632	948.264	55.0615
14.5693	947.433	55.1299
14.5754	944.876	55.1982
14.5816	942.266	55.2666
14.5871	937.681	55.335
14.591	935.927	55.40332
14.5976	937.328	55.47168
14.604	938.0188	55.54
14.6079	936.347	55.6084
14.6139	940.759	55.6768
14.6208	946.775	55.7451
14.6265	946.858	55.8135
14.6321	945.065	55.8818
14.6367	945.32	55.9502
14.6432	939.773	56.0186
14.6483	934.928	56.0869
14.6552	935.868	56.1553
14.6597	936.252	56.2236
14.665	936.274	56.292
14.6715	937.614	56.3604
14.677	943.772	56.4287
14.6826	946.1662	56.49707
14.6894	945.586	56.56543
14.694	947.266	56.6338
14.6994	945.893	56.7021
14.7057	938.049	56.7705
14.71094	936.295	56.8389
14.7173	935.685	56.9072
14.7231	933.2	56.9756
14.7273	934.251	57.0439
14.7339	942.248	57.1123
14.7398	946.083	57.1807
14.745	944.095	57.249
14.7511	947.074	57.3174
14.758	944.843	57.3857
14.7622	940.587	57.4541
14.7695	937.704	57.5225
14.7742	935.343	57.59082
14.78	932.787	57.65918
14.785	930.204	57.7275
14.7917	936.914	57.7959
14.7971	942.781	57.8643
14.8027	944.727	57.9326
14.8081	945.873	58.001
14.8134	945.8797	58.0693
14.8194	942.241	58.1377
14.8254	939.641	58.2061
14.8314	935.376	58.2744
14.8361	929.911	58.3428
14.8425	930.809	58.4111
14.848	934.877	58.4795
14.85392	938.598	58.5479
14.8604	943.544	58.6162
14.8647	944.293	58.68457
14.8716	943.965	58.75293
14.8774	941.723	58.8213
14.8826	940.711	58.8896
14.8881	936.26	58.958
14.8936	930.396	59.0264
14.8997	928.775	59.0947
14.9047	932.001	59.1631
14.9105	935.206	59.2314
14.9175	937.608	59.2998
14.9217	940.697	59.3682
14.9279	943.698	59.4365
14.9343	939.425	59.5049
14.9402	941.79	59.5732
14.9454	940.016	59.6416
14.9497	932.202	59.71
14.9576	928.26	59.77832
14.9623	929.768	59.84668
14.9677	933.379	59.915
14.9732	933.414	59.9834
14.9753	935.4801	60.0127

Data Header:			0.254_hd_dimension_typei_4545_r0			Time:	66.8433	s	4/15/2019 3:13:08 PM
Data Acquisition:	Timed
Station Name:	ft40.cfg
Test File Name:	monotonic_0.2540_typei_hd_4545_dimension.tst
Displacement	Force	Running Time
mm	N	s
14.977	934.147	60.0225
14.97936	939.29	60.0518
14.9811	936.162	60.0811
14.9838	933.364	60.1104
14.9869	938.271	60.1396
14.9894	934.472	60.1689
14.9915	943.173	60.1982
14.9936	931.127	60.2275
14.9962	941.663	60.2568
14.9999	929.825	60.2861
15.0003	942.041	60.31543
15.0033	927.692	60.3447
15.0064	944.064	60.374
15.0094	931.425	60.40332
15.01193	943.281	60.4326
15.01323	927.276	60.4619
15.015	940.067	60.4912
15.0186	935.495	60.5205
15.0215	935.836	60.5498
15.0226	933.738	60.5791
15.0263	935.958	60.6084
15.0286	938.758	60.6377
15.0303	930.1795	60.667
15.0325	938.52	60.6963
15.0348	932.892	60.7256
15.038	941.338	60.7549
15.0401	928.491	60.78418
15.0429	940.3067	60.8135
15.0454	930.93	60.8428
15.0463	941.172	60.87207
15.0494	931.568	60.9014
15.0526	939.317	60.9307
15.05511	933.03	60.96
15.0586	937.047	60.9893
15.0594	935.453	61.0186
15.06214	938.157	61.0479
15.0645	936.3891	61.0771
15.06625	934.705	61.1064
15.0695	938.475	61.1357
15.0715	933.279	61.165
15.0752	938.163	61.1943
15.0785	930.609	61.2236
15.0788	944.672	61.25293
15.08178	933.01	61.2822
15.0851	939.836	61.3115
15.0871	930.692	61.34082
15.0888	941.151	61.3701
15.0914	932.874	61.3994
15.0945	938.046	61.4287
15.0961	934.386	61.458
15.0984	938.742	61.4873
15.1019	937.552	61.5166
15.1033	930.6004	61.5459
15.1061	939.26	61.5752
15.1088	933.308	61.6045
15.1113	939.817	61.6338
15.1132	929.911	61.6631
15.1157	943.585	61.6924
15.1178	929.808	61.72168
15.1208	940.681	61.751
15.1236	928.855	61.7803
15.12637	944.651	61.80957
15.1288	930.585	61.8389
15.1302	938.672	61.8682
15.1324	930.024	61.8975
15.1352	939.674	61.9268
15.1376	936.242	61.9561
15.1399	935.67	61.9854
15.14223	937.744	62.0146
15.1444	934.484	62.0439
15.1483	938.741	62.0732
15.1498	931.806	62.1025
15.152	942.294	62.1318
15.15564	929.231	62.1611
15.1576	941.661	62.19043
15.1608	928.832	62.2197
15.1621	943.304	62.249
15.1649	928.783	62.27832
15.1671	942.603	62.3076
15.17	932.642	62.3369
15.172	939.948	62.3662
15.175	929.301	62.3955
15.1781	936.697	62.4248
15.1788	934.721	62.4541
15.182	933.311	62.4834
15.1832	935.285	62.5127
15.1867	931.993	62.542
15.1895	939.736	62.5713
15.1916	929.8714	62.6006
15.1949	935.782	62.6299
15.1968	931.715	62.65918
15.1985	943.339	62.6885
15.2008	929.346	62.7178
15.2038	936.274	62.74707
15.2065	929.241	62.7764
15.2081	938.931	62.8057
15.2112	932.3551	62.835
15.214	935.086	62.8643
15.215	935.382	62.8936
15.2186	934.403	62.9229
15.2213	934.63	62.9521
15.2226	930.355	62.9814
15.22521	938.694	63.0107
15.2282	929.414	63.04
15.2319	940.074	63.0693
15.234	928.442	63.0986
15.2357	940.5506	63.12793
15.2378	927.892	63.1572
15.2399	940.769	63.1865
15.2428	930.149	63.21582
15.2447	938.595	63.2451
15.2479	928.735	63.2744
15.2506	934.71	63.3037
15.2525	933.446	63.333
15.2561	933.018	63.3623
15.2571	934.939	63.3916
15.26	934.448	63.4209
15.2625	935.382	63.4502
15.2644	925.208	63.4795
15.2672	940.742	63.5088
15.2703	929.704	63.5381
15.2717	940.69	63.5674
15.2744	922.925	63.59668
15.2775	939.8988	63.626
15.2804	926.894	63.6553
15.281	939.717	63.68457
15.2844	925.106	63.7139
15.2865	939.064	63.7432
15.2905	931.1792	63.7725
15.2914	934.327	63.8018
15.2935	928.848	63.8311
15.296	934.324	63.8604
15.2996	935.238	63.8896
15.3011	931.163	63.9189
15.3032	933.721	63.9482
15.3072	929.9281	63.9775
15.3095	937.45	64.0068
15.3116	925.697	64.0361
15.3132	938.44	64.06543
15.3157	928.353	64.0947
15.3189	939.821	64.124
15.3213	926.439	64.15332
15.3232	937.4563	64.1826
15.3262	928.557	64.2119
15.3287	937.026	64.2412
15.33031	931.0838	64.2705
15.33246	935.708	64.2998
15.336	931.2785	64.3291
15.3381	929.942	64.3584
15.3409	934.13	64.3877
15.3422	929.489	64.417
15.3454	935.64	64.4463
15.3473	926.699	64.4756
15.3499	936.043	64.5049
15.3522	925.526	64.53418
15.3545	935.508	64.5635
15.3579	927.097	64.5928
15.3599	939.419	64.62207
15.3622	927.9165	64.6514
15.36461	932.031	64.6807
15.3674	928.968	64.71
15.3687	933.753	64.7393
15.3725	930.53	64.7686
15.3757	928.273	64.7979
15.3775	933.525	64.8271
15.3781	928.367	64.8564
15.3823	933.512	64.8857
15.3846	922.758	64.915
15.3866	938.571	64.9443
15.3893	925.191	64.9736
15.3921	935.3858	65.00293
15.3957	920.747	65.0322
15.396	937.177	65.0615
15.3995	922.928	65.09082
15.401	934.671	65.1201
15.4033	924.618	65.1494
15.4068	933.849	65.1787
15.4099	925.725	65.208
15.41156	929.143	65.2373
15.4131	927.529	65.2666
15.4159	926.925	65.2959
15.4179	930.229	65.3252
15.4211	922.152	65.3545
15.42695	-111.143	65.3838
15.4313	-48.2851	65.4131
15.4305	-42.3065	65.4424
15.4328	-49.43	65.47168
15.4347	-33.7441	65.501
15.4371	-52.5897	65.5303
15.43942	-36.6211	65.55957
15.4415	-49.0486	65.5889
15.44387	-37.4682	65.6182
15.446	-50.2257	65.6475
15.44928	-39.5499	65.6768
15.4515	-42.4456	65.7061
15.4529	-43.7632	65.7354
15.45581	-44.6405	65.7646
15.4582	-45.0451	65.7939
15.4597	-38.8081	65.8232
15.4638	-48.3665	65.8525
15.46513	-39.4449	65.8818
15.4673	-48.7176	65.9111
15.4701	-36.4251	65.94043
15.4724	-50.40551	65.9697
15.4745	-39.23727	65.999
15.4775	-45.8226	66.02832
15.4802	-37.85741	66.0576
15.4818	-48.1196	66.0869
15.4834	-42.78334	66.1162
15.4877	-45.1305	66.1455
15.48982	-41.9532	66.1748
15.493	-43.9604	66.2041
15.4938	-43.9243	66.2334
15.4963	-40.6672	66.2627
15.5006	-49.271	66.292
15.5026	-38.94117	66.3213
15.50529	-46.54488	66.3506
15.5074	-35.5134	66.3799
15.5087	-48.9731	66.40918
15.5127	-36.0881	66.4385
15.514	-48.4439	66.4678
15.5165	-39.3615	66.49707
15.5189	-47.16898	66.5264
15.5217	-37.48003	66.5557
15.5241	-44.5929	66.585
15.5266	-43.89175	66.6143
15.5289	-44.2658	66.6436
15.5314	-43.1007	66.6729
15.5335	-41.1726	66.7021
15.5357	-48.1327	66.7314
15.53942	-36.9112	66.7607
15.5402	-46.2757	66.79
15.54416	-37.6678	66.8193
15.54519	-47.9302	66.8389