File: data/processed_data_files/tensile/0.254_hd_dimension_typeiv_4545_r(5).dat
MTS793|BTW|ENU|1|2|.|/|:|1|0|0|A

Data Header:			0.254_hd_dimension_typeiv_4545_r0			Time:	20.0168	s	4/13/2019 8:23:06 PM
Data Acquisition:	Timed
Station Name:	ft40.cfg
Test File Name:	monotonic_0.2540_typeiv_hd_4545_dimension.tst
Displacement	Force	Running Time
mm	N	s
-40.0342	-162.094	0.0222168
-40.0336	-162.9314	0.0905762
-40.0286	-161.31	0.158936
-40.0228	-155.248	0.227295
-40.0164	-151.571	0.2956543
-40.0108	-151.014	0.364014
-40.0053	-147.016	0.432373
-39.999	-145.192	0.500732
-39.9939	-146.492	0.5690918
-39.9871	-143.8412	0.637451
-39.9805	-136.524	0.705811
-39.9761	-132.957	0.77417
-39.9714	-130.0191	0.8425293
-39.9661	-123.439	0.910889
-39.9591	-119.6203	0.979248
-39.9533	-115.831	1.04761
-39.948	-113.3427	1.11597
-39.94249	-110.782	1.18433
-39.9361	-114.486	1.25269
-39.92984	-112.028	1.32104
-39.9249	-103.843	1.3894
-39.9203	-103.2217	1.45776
-39.91407	-99.4724	1.526123
-39.9092	-93.147	1.59448
-39.9027	-87.80735	1.66284
-39.8972	-82.8992	1.7312
-39.89109	-81.7139	1.79956
-39.8861	-79.4565	1.86792
-39.8794	-80.3877	1.93628
-39.873	-77.4779	2.00464
-39.8689	-73.4723	2.072998
-39.8622	-70.9427	2.14136
-39.8579	-65.32399	2.20972
-39.8512	-61.1871	2.27808
-39.8464	-56.4688	2.34644
-39.84	-50.1334	2.41479
-39.8339	-48.616	2.48315
-39.8294	-46.6027	2.55151
-39.823	-47.824	2.619873
-39.8176	-44.2277	2.68823
-39.812	-42.0593	2.75659
-39.8068	-39.0371	2.82495
-39.8004	-34.3631	2.89331
-39.7946	-31.8428	2.96167
-39.7883	-26.6219	3.03003
-39.7838	-18.73975	3.09839
-39.7789	-15.1522	3.166748
-39.7719	-15.9596	3.23511
-39.7661	-15.6284	3.30347
-39.76083	-9.19848	3.37183
-39.7553	-9.28326	3.44019
-39.7487	-8.85803	3.50854
-39.7435	-4.14968	3.5769
-39.7379	0.674227	3.64526
-39.7315	6.28392	3.713623
-39.7261	12.5117	3.78198
-39.7206	15.9531	3.85034
-39.7149	17.0034	3.9187
-39.7091	19.5366	3.98706
-39.7031	25.5192	4.05542
-39.698	22.2326	4.12378
-39.69157	23.9663	4.19214
-39.6865	29.1709	4.260498
-39.681	32.592	4.32886
-39.6751	37.3015	4.39722
-39.6697	43.3753	4.46558
-39.6633	47.8682	4.53394
-39.6581	47.0961	4.60229
-39.652	52.0819	4.67065
-39.647	60.1981	4.73901
-39.6405	58.8603	4.807373
-39.6341	57.3429	4.87573
-39.6296	61.3598	4.94409
-39.6226	63.89167	5.01245
-39.6181	68.6139	5.08081
-39.6126	73.44162	5.14917
-39.6063	77.871	5.21753
-39.6005	79.3083	5.28589
-39.5954	83.49279	5.354248
-39.5894	90.2554	5.42261
-39.5826	90.1944	5.49097
-39.5774	90.057	5.55933
-39.5727	93.6507	5.62769
-39.5675	95.7635	5.69604
-39.5611	99.8585	5.7644
-39.5557	104.358	5.83276
-39.5488	107.029	5.901123
-39.5442	110.601	5.96948
-39.5373	117.481	6.03784
-39.5326	121.132	6.1062
-39.527	123.707	6.17456
-39.5218	124.769	6.24292
-39.5145	126.909	6.31128
-39.5094	127.232	6.37964
-39.5049	131.755	6.447998
-39.4988	134.886	6.51636
-39.4926	137.2384	6.58472
-39.48534	140.311	6.65308
-39.4797	148.967	6.72144
-39.4763	151.7321	6.78979
-39.4702	152.22	6.85815
-39.4646	155.752	6.92651
-39.4583	155.479	6.994873
-39.4528	158.828	7.06323
-39.4463	162.811	7.13159
-39.4404	164.473	7.19995
-39.4361	164.733	7.26831
-39.43058	168.854	7.33667
-39.4248	178.926	7.40503
-39.4183	180.316	7.47339
-39.4123	183.875	7.541748
-39.408	189.075	7.61011
-39.4015	188.451	7.67847
-39.3952	190.051	7.74683
-39.3901	192.339	7.81519
-39.3847	194.676	7.88354
-39.37965	193.93	7.9519
-39.3739	199.1059	8.02026
-39.3679	207.261	8.088623
-39.3623	209.391	8.15698
-39.3559	212.749	8.22534
-39.3504	218.519	8.2937
-39.3437	219.174	8.36206
-39.3386	220.825	8.43042
-39.3328	224.505	8.49878
-39.3281	223.423	8.56714
-39.3224	223.738	8.635498
-39.3162	227.694	8.70386
-39.311	236.597	8.77222
-39.3051	237.33	8.84058
-39.2987	242.6944	8.90894
-39.2929	247.773	8.97729
-39.2879	249.382	9.04565
-39.28194	250.817	9.11401
-39.2761	255.777	9.182373
-39.2705	255.558	9.25073
-39.2643	253.93	9.31909
-39.2597	257.547	9.38745
-39.2533	263.0257	9.45581
-39.248	266.8501	9.52417
-39.2422	270.957	9.59253
-39.2358	275.156	9.66089
-39.2302	280.1431	9.729248
-39.2239	281.502	9.79761
-39.2194	285.699	9.86597
-39.2139	284.2688	9.93433
-39.2077	282.342	10.0027
-39.2028	287.415	10.071
-39.1951	290.329	10.1394
-39.1908	293.676	10.2078
-39.1851	299.312	10.2761
-39.1788	302.91	10.3445
-39.1743	307.847	10.4128
-39.1685	310.711	10.4812
-39.163	312.776	10.5496
-39.1565	311.8967	10.61792
-39.15134	311.669	10.6863
-39.1446	316.7995	10.7546
-39.1396	317.117	10.823
-39.1344	319.42	10.8914
-39.1277	326.173	10.9597
-39.1228	327.216	11.0281
-39.1158	332.68	11.0964
-39.1113	338.118	11.1648
-39.1049	341.168	11.2332
-39.0997	337.323	11.3015
-39.0945	340.413	11.3699
-39.0885	343.8	11.4382
-39.0828	342.065	11.5066
-39.077	345.139	11.575
-39.0708	350.003	11.6433
-39.0647	351.8183	11.71167
-39.05904	359.116	11.78
-39.0544	364.687	11.8484
-39.0479	366.186	11.9167
-39.0417	365.322	11.9851
-39.0369	367.814	12.0535
-39.0325	371.348	12.1218
-39.0251	368.951	12.1902
-39.02	368.972	12.2585
-39.0144	374.033	12.3269
-39.008	376.237	12.3953
-39.0029	381.563	12.4636
-38.9965	388.174	12.532
-38.9916	390.783	12.6003
-38.9852	391.748	12.6687
-38.98	394.181	12.7371
-38.9733	395.002	12.80542
-38.9679	393.468	12.8738
-38.9633	394.005	12.9421
-38.958	396.686	13.0105
-38.9517	400.227	13.0789
-38.9462	402.6	13.1472
-38.9402	407.621	13.2156
-38.9338	411.704	13.2839
-38.9299	410.145	13.3523
-38.9227	414.28	13.4207
-38.917	415.903	13.489
-38.9132	416.013	13.5574
-38.9068	416.201	13.6257
-38.9019	417.8735	13.6941
-38.895	421.279	13.7625
-38.8896	422.2778	13.8308
-38.8838	426.917	13.89917
-38.8775	429.553	13.9675
-38.8715	431.17	14.0359
-38.8663	435.755	14.1042
-38.8616	437.606	14.1726
-38.855	436.012	14.241
-38.8493	436.602	14.3093
-38.8437	435.771	14.3777
-38.8382	437.8895	14.446
-38.8323	440.362	14.5144
-38.8273	441.967	14.5828
-38.8213	441.8952	14.6511
-38.8154	447.628	14.7195
-38.8083	452.757	14.7878
-38.8038	453.003	14.8562
-38.798	454.044	14.9246
-38.7933	453.843	14.99292
-38.7862	451.22	15.0613
-38.7804	454.022	15.1296
-38.7757	456.064	15.198
-38.7695	454.474	15.2664
-38.7642	455.654	15.3347
-38.7574	460.924	15.4031
-38.7524	466.128	15.4714
-38.7472	464.225	15.5398
-38.7412	465.911	15.6082
-38.7346	466.334	15.6765
-38.7298	465.538	15.7449
-38.723	464.18	15.8132
-38.7184	466.144	15.8816
-38.7112	462.941	15.95
-38.7075	463.684	16.0183
-38.7013	468.892	16.08667
-38.6946	474.7207	16.155
-38.6899	473.547	16.2234
-38.6843	473.744	16.2917
-38.678	475.29	16.3601
-38.672	474.938	16.4285
-38.6669	473.0022	16.4968
-38.6615	473.549	16.5652
-38.6555	470.01	16.6335
-38.6489	467.657	16.7019
-38.6443	472.549	16.7703
-38.6388	475.404	16.8386
-38.6325	475.125	16.907
-38.6272	476.886	16.9753
-38.6226	479.2688	17.0437
-38.6161	477.453	17.1121
-38.6102	476.732	17.18042
-38.6052	475.997	17.2488
-38.5984	472.098	17.3171
-38.5932	469.1767	17.3855
-38.5866	473.061	17.4539
-38.5823	475.361	17.5222
-38.5762	474.509	17.5906
-38.5697	477.425	17.6589
-38.564	477.635	17.7273
-38.5587	480.161	17.7957
-38.5528	479.434	17.864
-38.5482	477.0676	17.9324
-38.5412	473.147	18.0007
-38.5355	471.183	18.0691
-38.531	472.949	18.1375
-38.5236	474.952	18.2058
-38.5184	475.286	18.27417
-38.5122	477.993	18.3425
-38.5076	478.3	18.4109
-38.5019	481.442	18.4792
-38.4955	481.051	18.5476
-38.4911	476.5004	18.616
-38.4856	472.761	18.6843
-38.4794	473.679	18.7527
-38.4733	473.603	18.821
-38.4683	472.936	18.8894
-38.46154	472.033	18.9578
-38.4569	476.112	19.0261
-38.4513	476.226	19.0945
-38.4446	481.361	19.1628
-38.4383	481.714	19.2312
-38.4339	478.1951	19.2996
-38.4261	474.427	19.36792
-38.4229	476.812	19.4363
-38.4166	474.188	19.5046
-38.4106	470.834	19.573
-38.40519	473.491	19.6414
-38.3996	474.557	19.7097
-38.3939	475.984	19.7781
-38.3878	479.6051	19.8464
-38.3824	481.379	19.9148
-38.3767	478.49	19.9832
-38.3744	472.528	20.0125

Data Header:			0.254_hd_dimension_typeiv_4545_r0			Time:	40.01709	s	4/13/2019 8:23:26 PM
Data Acquisition:	Timed
Station Name:	ft40.cfg
Test File Name:	monotonic_0.2540_typeiv_hd_4545_dimension.tst
Displacement	Force	Running Time
mm	N	s
-38.3731	474.036	20.0222
-38.3676	476.373	20.0906
-38.3626	477.611	20.1589
-38.35593	477.813	20.2273
-38.3508	480.415	20.2957
-38.3449	479.566	20.364
-38.3388	475.9277	20.4324
-38.3339	472.122	20.5007
-38.32576	471.1217	20.5691
-38.3219	472.071	20.6375
-38.3165	471.9447	20.7058
-38.3111	474.192	20.77417
-38.3046	475.1777	20.8425
-38.2987	477.118	20.9109
-38.2928	479.594	20.9792
-38.2881	478.7	21.0476
-38.2815	474.334	21.116
-38.2756	472.469	21.1843
-38.2704	473.206	21.2527
-38.26564	472.819	21.321
-38.2588	470.137	21.3894
-38.2528	472.512	21.4578
-38.2484	474.721	21.5261
-38.24078	475.126	21.5945
-38.2364	479.312	21.6628
-38.2305	479.263	21.7312
-38.2244	475.614	21.7996
-38.2188	472.454	21.86792
-38.21344	475.015	21.9363
-38.207	474.2298	22.0046
-38.202	468.5827	22.073
-38.1962	472.619	22.1414
-38.19149	473.471	22.2097
-38.1866	475.761	22.2781
-38.1789	477.831	22.3464
-38.1747	480.0517	22.4148
-38.1685	475.554	22.4832
-38.1622	476.402	22.5515
-38.1565	476.848	22.6199
-38.1502	472.45	22.6882
-38.1447	469.323	22.7566
-38.1393	470.964	22.825
-38.1332	470.732	22.8933
-38.128	473.999	22.96167
-38.1226	476.5502	23.03
-38.1175	478.245	23.0984
-38.111	475.225	23.1667
-38.1054	474.742	23.2351
-38.1007	477.28	23.3035
-38.0943	474.982	23.3718
-38.0883	470.672	23.4402
-38.0819	470.332	23.5085
-38.07663	469.424	23.5769
-38.0714	472.796	23.6453
-38.066	474.248	23.7136
-38.05864	475.966	23.782
-38.0534	474.512	23.8503
-38.0483	475.201	23.9187
-38.0428	478.724	23.9871
-38.0371	473.827	24.05542
-38.032	471.537	24.1238
-38.0262	472.154	24.1921
-38.0205	469.362	24.2605
-38.0129	470.853	24.3289
-38.0085	472.429	24.3972
-38.0028	472.476	24.4656
-37.9972	474.215	24.5339
-37.9906	477.144	24.6023
-37.9863	475.802	24.6707
-37.9797	473.86	24.739
-37.9736	473.832	24.8074
-37.968	470.5914	24.8757
-37.9621	470.62	24.9441
-37.9575	472.383	25.0125
-37.951	471.249	25.0808
-37.9452	471.739	25.14917
-37.9394	472.685	25.2175
-37.9344	477.68	25.2859
-37.9291	476.725	25.3542
-37.923	475.367	25.4226
-37.9161	474.664	25.491
-37.91148	471.887	25.5593
-37.90596	469.783	25.6277
-37.8998	470.976	25.696
-37.8947	471.248	25.7644
-37.888	467.677	25.8328
-37.8826	471.49	25.9011
-37.8779	477.129	25.9695
-37.8718	472.517	26.0378
-37.8659	475.396	26.1062
-37.8614	476.143	26.1746
-37.8541	472.265	26.24292
-37.8478	471.772	26.3113
-37.8431	469.777	26.3796
-37.83865	469.6	26.448
-37.8333	465.965	26.5164
-37.8265	469.26	26.5847
-37.82045	474.945	26.6531
-37.815	473.778	26.7214
-37.81	473.169	26.7898
-37.8031	475.677	26.8582
-37.7981	474.283	26.9265
-37.7912	471.098	26.9949
-37.7863	473.058	27.0632
-37.7809	468.567	27.1316
-37.7755	465.426	27.2
-37.7688	469.9682	27.2683
-37.7624	472.816	27.33667
-37.7575	473.084	27.405
-37.7521	472.475	27.4734
-37.7476	474.851	27.5417
-37.74078	475.955	27.6101
-37.7361	475.697	27.6785
-37.7289	473.212	27.7468
-37.7236	471.504	27.8152
-37.7187	467.45	27.8835
-37.7135	470.454	27.9519
-37.7061	470.7	28.0203
-37.70055	470.146	28.0886
-37.69558	473.974	28.157
-37.6897	474.47	28.2253
-37.6848	475.294	28.2937
-37.6769	475.79	28.3621
-37.6732	473.432	28.43042
-37.6683	469.362	28.4988
-37.6618	467.772	28.5671
-37.6548	470.097	28.6355
-37.6488	470.147	28.7039
-37.6439	468.572	28.7722
-37.6389	473.631	28.8406
-37.6326	472.3782	28.9089
-37.62775	474.753	28.9773
-37.6201	477.4408	29.0457
-37.6158	474.453	29.114
-37.6112	471.289	29.1824
-37.6034	469.63	29.2507
-37.5982	468.869	29.3191
-37.5926	466.041	29.3875
-37.5871	467.937	29.4558
-37.5809	471.427	29.52417
-37.5758	470.38	29.5925
-37.57045	473.664	29.6609
-37.5638	476.831	29.7292
-37.5597	472.602	29.7976
-37.5532	470.4621	29.866
-37.546	471.119	29.9343
-37.5407	469.817	30.0027
-37.5363	466.944	30.071
-37.5294	466.418	30.1394
-37.5238	468.86	30.2078
-37.51857	468.896	30.2761
-37.5129	473.613	30.3445
-37.5065	475.59	30.4128
-37.5013	475.266	30.4812
-37.496	470.413	30.5496
-37.4907	471.584	30.61792
-37.484	471.684	30.6863
-37.4785	465.8826	30.7546
-37.4722	466.341	30.823
-37.4675	468.173	30.8914
-37.4625	470.063	30.9597
-37.456	471.528	31.0281
-37.4508	475.564	31.0964
-37.4449	473.807	31.1648
-37.4391	471.428	31.2332
-37.4341	474.074	31.3015
-37.427	472.45	31.3699
-37.4227	467.93	31.4382
-37.4158	466.49	31.5066
-37.41048	467.419	31.575
-37.4044	468.755	31.6433
-37.3988	469.306	31.71167
-37.3934	471.735	31.78
-37.3874	472.882	31.8484
-37.3812	473.312	31.9167
-37.37606	475.334	31.9851
-37.3711	472.022	32.0535
-37.3647	469.344	32.1218
-37.3588	466.464	32.1902
-37.3534	466.118	32.2585
-37.3475	468.536	32.3269
-37.3423	468.357	32.3953
-37.3358	470.765	32.4636
-37.3306	470.5643	32.532
-37.3251	472.949	32.6003
-37.3195	474.711	32.6687
-37.3134	473.239	32.7371
-37.3083	471.74	32.80542
-37.3018	469.338	32.8738
-37.2969	464.743	32.9421
-37.2908	468.389	33.0105
-37.2846	469.678	33.0789
-37.2797	468.066	33.1472
-37.2736	468.326	33.2156
-37.2684	473.399	33.2839
-37.2632	473.62	33.3523
-37.2567	472.488	33.4207
-37.2512	472.067	33.489
-37.2449	470.933	33.5574
-37.2397	464.631	33.6257
-37.2343	469.595	33.6941
-37.22765	469.495	33.7625
-37.2225	467.978	33.8308
-37.21616	467.382	33.89917
-37.2116	472.475	33.9675
-37.2054	472.8223	34.0359
-37.1995	471.487	34.1042
-37.1942	473.826	34.1726
-37.1891	471.511	34.241
-37.1827	469.755	34.3093
-37.178	469.361	34.3777
-37.1711	468.951	34.446
-37.16523	464.997	34.5144
-37.1599	465.501	34.5828
-37.1541	471.75	34.6511
-37.1488	471.562	34.7195
-37.1423	470.062	34.7878
-37.1373	472.2554	34.8562
-37.1318	472.684	34.9246
-37.1263	470.52	34.99292
-37.12038	470.035	35.0613
-37.1147	467.279	35.1296
-37.1093	463.947	35.198
-37.102	464.75	35.2664
-37.0962	469.7395	35.3347
-37.0903	469.819	35.4031
-37.0857	469.962	35.4714
-37.0811	472.2117	35.5398
-37.0742	472.562	35.6082
-37.0685	470.179	35.6765
-37.0625	469.617	35.7449
-37.0568	468.441	35.8132
-37.05175	464.753	35.8816
-37.04644	464.262	35.95
-37.0404	468.388	36.0183
-37.035	467.844	36.08667
-37.0296	469.898	36.155
-37.02314	471.112	36.2234
-37.0178	470.681	36.2917
-37.0115	473.274	36.3601
-37.0056	471.293	36.4285
-37.0008	468.149	36.4968
-36.9938	465.0513	36.5652
-36.9882	464.722	36.6335
-36.9835	466.042	36.7019
-36.97757	465.522	36.7703
-36.9729	468.963	36.8386
-36.9677	471.772	36.907
-36.9598	470.653	36.9753
-36.9556	473.92	37.0437
-36.9485	472.634	37.1121
-36.9435	468.782	37.18042
-36.938	467.065	37.2488
-36.9325	466.895	37.3171
-36.9258	464.707	37.3855
-36.92057	464.357	37.4539
-36.9145	467.585	37.5222
-36.909	468.011	37.5906
-36.9042	469.763	37.6589
-36.89772	473.816	37.7273
-36.8913	473.294	37.7957
-36.8867	467.215	37.864
-36.8805	467.366	37.9324
-36.8752	469.6373	38.0007
-36.869	465.697	38.0691
-36.8627	462.234	38.1375
-36.8574	464.854	38.2058
-36.85231	466.221	38.27417
-36.8471	467.985	38.3425
-36.8413	472.339	38.4109
-36.834	474.942	38.4792
-36.82925	467.6489	38.5476
-36.8233	467.242	38.616
-36.8184	467.873	38.6843
-36.8124	465.142	38.7527
-36.8066	461.697	38.821
-36.8009	464.176	38.8894
-36.7958	466.8707	38.9578
-36.79081	467.361	39.0261
-36.7847	470.656	39.0945
-36.778	471.6286	39.1628
-36.7719	468.386	39.2312
-36.76609	468.12	39.2996
-36.7617	469.988	39.36792
-36.7554	465.831	39.4363
-36.7497	461.633	39.5046
-36.7435	464.339	39.573
-36.7391	462.964	39.6414
-36.7321	465.116	39.7097
-36.7264	468.789	39.7781
-36.7213	470.817	39.8464
-36.715	467.511	39.9148
-36.7101	469.302	39.9832
-36.7079	465.07	40.0125

Data Header:			0.254_hd_dimension_typeiv_4545_r0			Time:	44.5056	s	4/13/2019 8:23:31 PM
Data Acquisition:	Timed
Station Name:	ft40.cfg
Test File Name:	monotonic_0.2540_typeiv_hd_4545_dimension.tst
Displacement	Force	Running Time
mm	N	s
-36.7057	465.698	40.0222
-36.7048	470.108	40.0417
-36.7045	467.9227	40.0613
-36.702	461.4	40.0808
-36.6997	469.913	40.1003
-36.6979	468.2991	40.1199
-36.6971	464.474	40.1394
-36.6956	467.268	40.1589
-36.6945	469.9917	40.1785
-36.692	461.271	40.198
-36.691	469.433	40.2175
-36.6891	468.713	40.2371
-36.6869	463.418	40.2566
-36.68544	467.2655	40.2761
-36.6842	472.462	40.2957
-36.6824	462.3208	40.3152
-36.6809	465.585	40.3347
-36.6785	468.196	40.3542
-36.6763	466.139	40.3738
-36.6753	463.551	40.3933
-36.6747	470.399	40.4128
-36.6712	464.144	40.4324
-36.6709	464.459	40.4519
-36.6699	468.81	40.4714
-36.6671	468.175	40.491
-36.6653	464.386	40.5105
-36.66441	466.736	40.53
-36.6618	467.129	40.5496
-36.66153	463.351	40.5691
-36.6591	464.567	40.5886
-36.6573	469.59	40.6082
-36.6566	465.08	40.6277
-36.65411	464.048	40.6472
-36.6525	470.116	40.6667
-36.6515	462.951	40.6863
-36.6499	463.321	40.7058
-36.6473	470.064	40.7253
-36.6453	468.843	40.7449
-36.6452	459.432	40.7644
-36.6435	469.37	40.7839
-36.6411	466.4035	40.8035
-36.6398	463.453	40.823
-36.6377	465.563	40.8425
-36.63612	469.811	40.8621
-36.6345	460.181	40.8816
-36.6328	468.23	40.9011
-36.6319	467.118	40.9207
-36.63026	463.496	40.9402
-36.6281	464.495	40.9597
-36.6271	470.678	40.9792
-36.6247	463.026	40.9988
-36.6232	462.322	41.0183
-36.62085	466.383	41.0378
-36.6189	464.575	41.0574
-36.6181	463.279	41.0769
-36.6162	467.501	41.0964
-36.6149	465.469	41.116
-36.6138	460.774	41.1355
-36.6116	465.95	41.155
-36.6099	466.317	41.1746
-36.6081	463.111	41.1941
-36.608	461.551	41.2136
-36.6053	467.2114	41.2332
-36.6042	462.35	41.2527
-36.6017	461.695	41.2722
-36.6007	466.339	41.2917
-36.5996	465.714	41.3113
-36.5963	460.183	41.3308
-36.5959	468.023	41.3503
-36.5939	463.854	41.3699
-36.5925	460.879	41.3894
-36.5911	465.976	41.4089
-36.59	469.437	41.4285
-36.5887	457.767	41.448
-36.58601	466.463	41.4675
-36.5853	464.744	41.4871
-36.5824	461.389	41.5066
-36.5816	463.298	41.5261
-36.5787	468.359	41.5457
-36.5776	458.665	41.5652
-36.57679	463.066	41.5847
-36.5746	466.199	41.6042
-36.5726	462.447	41.6238
-36.5721	460.112	41.6433
-36.5695	466.445	41.6628
-36.568	462.647	41.6824
-36.5669	460.868	41.7019
-36.5651	463.698	41.7214
-36.5634	462.281	41.741
-36.562	461.296	41.7605
-36.5608	463.465	41.78
-36.5602	463.889	41.7996
-36.5564	458.32	41.8191
-36.5547	461.242	41.8386
-36.5532	465.687	41.8582
-36.5513	460.759	41.8777
-36.5483	457.206	41.8972
-36.5485	464.191	41.9167
-36.54752	458.943	41.9363
-36.5446	456.965	41.9558
-36.5443	463.111	41.9753
-36.5435	460.537	41.9949
-36.5406	455.83	42.0144
-36.5395	464.48	42.0339
-36.5377	460.426	42.0535
-36.5359	455.893	42.073
-36.5348	459.1467	42.0925
-36.5324	464.456	42.1121
-36.52998	452.2515	42.1316
-36.5295	458.372	42.1511
-36.5265	458.252	42.1707
-36.5259	453.175	42.1902
-36.5248	455.933	42.2097
-36.5225	460.088	42.2292
-36.5212	449.167	42.2488
-36.5195	450.463	42.2683
-36.5174	451.3689	42.2878
-36.5127	-23.2812	42.3074
-36.5118	-61.5821	42.3269
-36.5116	-34.3647	42.3464
-36.5111	-41.261	42.366
-36.5091	-44.6726	42.3855
-36.5081	-40.5251	42.405
-36.5062	-41.2121	42.4246
-36.50491	-44.4399	42.4441
-36.5024	-41.9635	42.4636
-36.5013	-38.4883	42.4832
-36.4987	-44.9399	42.5027
-36.4976	-44.5345	42.5222
-36.4964	-38.816	42.5417
-36.49453	-42.367	42.5613
-36.4926	-46.8749	42.5808
-36.4913	-37.6947	42.6003
-36.4899	-42.6934	42.6199
-36.4872	-45.41526	42.6394
-36.486	-39.5967	42.6589
-36.48521	-38.9309	42.6785
-36.4823	-47.6691	42.698
-36.4825	-39.7198	42.7175
-36.48064	-40.5763	42.7371
-36.4779	-45.0478	42.7566
-36.4771	-41.73518	42.7761
-36.4765	-36.7468	42.7957
-36.47427	-45.4403	42.8152
-36.4711	-43.0891	42.8347
-36.4706	-41.0357	42.8542
-36.4688	-44.01881	42.8738
-36.4676	-43.3867	42.8933
-36.4658	-39.0351	42.9128
-36.4635	-42.5982	42.9324
-36.4624	-45.5693	42.9519
-36.4603	-40.17128	42.9714
-36.4581	-41.5365	42.991
-36.4577	-44.9413	43.0105
-36.4554	-42.9299	43.03
-36.4545	-41.6766	43.0496
-36.4529	-45.4751	43.0691
-36.45071	-43.7245	43.0886
-36.4485	-39.9967	43.1082
-36.4486	-42.077	43.1277
-36.4463	-46.06216	43.1472
-36.4439	-37.2449	43.1667
-36.4426	-44.3447	43.1863
-36.4411	-44.94701	43.2058
-36.4388	-39.6546	43.2253
-36.4388	-39.0636	43.2449
-36.4366	-48.06	43.2644
-36.43523	-40.0046	43.2839
-36.4332	-42.7831	43.3035
-36.4314	-45.6298	43.323
-36.4292	-41.4391	43.3425
-36.4283	-38.7796	43.3621
-36.4257	-47.6028	43.3816
-36.4246	-41.4348	43.4011
-36.4231	-39.586	43.4207
-36.421	-45.0894	43.4402
-36.4195	-44.2869	43.4597
-36.4179	-38.8814	43.4792
-36.41674	-45.2975	43.4988
-36.4152	-43.9743	43.5183
-36.41423	-41.0727	43.5378
-36.4124	-44.0736	43.5574
-36.4105	-45.2551	43.5769
-36.4085	-40.55732	43.5964
-36.408	-42.9581	43.616
-36.4056	-47.2178	43.6355
-36.4036	-42.1107	43.655
-36.4019	-40.1921	43.6746
-36.401	-44.0192	43.6941
-36.399	-44.8663	43.7136
-36.3969	-38.5944	43.7332
-36.3954	-45.4421	43.7527
-36.3942	-42.5087	43.7722
-36.3914	-40.0595	43.7917
-36.3903	-42.9429	43.8113
-36.3886	-46.9179	43.8308
-36.3862	-37.3234	43.8503
-36.3862	-43.01516	43.8699
-36.3845	-46.3338	43.8894
-36.3831	-40.2896	43.9089
-36.3805	-38.9832	43.9285
-36.3799	-47.6046	43.948
-36.3775	-39.2815	43.9675
-36.3758	-41.6662	43.9871
-36.3742	-44.5811	44.0066
-36.3736	-40.7974	44.0261
-36.3708	-38.3913	44.0457
-36.3695	-47.446	44.0652
-36.368	-43.3538	44.0847
-36.3667	-39.8177	44.1042
-36.3649	-43.225	44.1238
-36.3625	-44.8882	44.1433
-36.3613	-40.6007	44.1628
-36.35973	-43.6822	44.1824
-36.3583	-45.0519	44.2019
-36.3566	-40.3642	44.2214
-36.3552	-42.296	44.241
-36.3522	-46.1908	44.2605
-36.3516	-42.0711	44.28
-36.349	-40.8242	44.2996
-36.3487	-46.8341	44.3191
-36.3464	-43.72073	44.3386
-36.3445	-40.2092	44.3582
-36.3439	-41.7638	44.3777
-36.3417	-46.6631	44.3972
-36.3413	-38.1457	44.4167
-36.3387	-45.5649	44.4363
-36.3364	-44.0816	44.4558
-36.3357	-39.8948	44.4753
-36.3342	-40.7781	44.4949