File: data/processed_data_files/tensile/0.254_solid_uprint_typei_090_r(6).dat
MTS793|BTW|ENU|1|2|.|/|:|1|0|0|A

Data Header:			0.254_solid_uprint_typei_090_r0			Time:	20.0276	s	4/15/2019 3:01:16 PM
Data Acquisition:	Timed
Station Name:	ft40.cfg
Test File Name:	monotonic_0.2540_typei_solid_090_uprint.tst
Displacement	Force	Running Time
mm	N	s
9.980979	-119.229	0.0322266
9.98394	-116.749	0.100586
9.9896	-115.441	0.168945
9.99711	-113.409	0.237305
10.00096	-110.822	0.305664
10.0065	-107.826	0.374023
10.0125	-106.913	0.442383
10.0188	-104.82	0.510742
10.0238	-98.3016	0.579102
10.029	-94.1211	0.647461
10.035	-85.5884	0.71582
10.0408	-78.32518	0.78418
10.0467	-74.2817	0.852539
10.0525	-75.07814	0.920898
10.0568	-69.5555	0.989258
10.0635	-64.5053	1.05762
10.0698	-67.5668	1.12598
10.07601	-65.5745	1.19434
10.08082	-59.3479	1.2627
10.0852	-55.793	1.33105
10.0928	-50.0476	1.39941
10.0974	-40.8669	1.46777
10.1041	-37.4154	1.53613
10.1098	-34.7068	1.60449
10.1142	-31.2898	1.67285
10.1211	-23.8559	1.74121
10.1266	-24.9293	1.80957
10.1322	-25.4655	1.87793
10.1367	-19.5531	1.94629
10.1433	-17.1007	2.01465
10.1487	-11.8094	2.08301
10.1548	-4.1129	2.15137
10.1609	2.66436	2.21973
10.1653	5.04544	2.28809
10.17269	8.08248	2.35645
10.1772	15.661	2.4248
10.183	17.5593	2.49316
10.1891	16.0251	2.56152
10.1945	20.5013	2.62988
10.2008	21.88472	2.69824
10.20578	28.6274	2.7666
10.2116	32.4234	2.83496
10.2178	40.8586	2.90332
10.2236	44.6939	2.97168
10.2287	49.7588	3.04004
10.2349	56.9382	3.1084
10.24047	57.3995	3.17676
10.2467	59.2651	3.24512
10.25187	59.4852	3.31348
10.2573	61.2237	3.38184
10.2627	66.9513	3.4502
10.2685	73.1614	3.51855
10.2742	79.0271	3.58691
10.2799	81.3181	3.65527
10.2854	90.1051	3.72363
10.2916	95.93605	3.79199
10.2962	99.1801	3.86035
10.3029	100.395	3.92871
10.3089	103.1498	3.99707
10.3144	102.347	4.06543
10.3199	107.235	4.13379
10.3258	111.462	4.20215
10.332	115.0835	4.27051
10.3378	119.225	4.33887
10.3427	127.675	4.40723
10.3482	137.096	4.47559
10.3547	137.544	4.54395
10.36003	140.208	4.6123
10.3662	145.05	4.68066
10.3718	143.961	4.74902
10.3775	145.981	4.81738
10.3827	150.293	4.88574
10.3881	150.8425	4.9541
10.3958	152.8033	5.02246
10.3992	159.527	5.09082
10.406	169.862	5.15918
10.4112	172.505	5.22754
10.41655	176.565	5.2959
10.4237	181.021	5.36426
10.4292	180.625	5.43262
10.4342	182.464	5.50098
10.4399	186.536	5.56934
10.4447	189.26	5.6377
10.4518	189.622	5.70605
10.4567	196.602	5.77441
10.4629	208.087	5.84277
10.4682	213.376	5.91113
10.4737	215.649	5.97949
10.4796	222.935	6.04785
10.4849	223.108	6.11621
10.4908	224.767	6.18457
10.4962	226.1498	6.25293
10.5018	230.267	6.32129
10.507	229.46	6.38965
10.514	234.442	6.45801
10.5195	244.055	6.52637
10.5245	250.369	6.59473
10.5316	257.017	6.66309
10.5374	261.111	6.73145
10.542	265.664	6.7998
10.54894	266.0097	6.86816
10.5533	266.719	6.93652
10.5603	268.954	7.00488
10.5646	269.237	7.07324
10.57	271.773	7.1416
10.5756	281.12	7.20996
10.5822	288.035	7.27832
10.5871	294.362	7.34668
10.5942	299.06	7.41504
10.5991	301.985	7.4834
10.6041	306.732	7.55176
10.6111	308.457	7.62012
10.6166	309.1705	7.68848
10.622	307.547	7.75684
10.6279	310.622	7.8252
10.6338	318.789	7.89355
10.638	322.989	7.96191
10.6453	329.961	8.03027
10.6499	336.631	8.09863
10.656	341.393	8.16699
10.6619	344.382	8.23535
10.6681	347.892	8.30371
10.6733	349.292	8.37207
10.6784	346.142	8.44043
10.6859	347.954	8.50879
10.6902	356.425	8.57715
10.6956	359.822	8.64551
10.7019	365.883	8.71387
10.708	373.496	8.78223
10.7129	380.357	8.85059
10.7182	381.747	8.91895
10.72487	388.022	8.9873
10.73029	390.056	9.05566
10.7362	387.412	9.12402
10.7406	384.879	9.19238
10.7472	391.884	9.26074
10.7513	397.826	9.3291
10.7588	399.895	9.39746
10.7644	408.702	9.46582
10.7703	417.474	9.53418
10.7764	422.6788	9.60254
10.7816	425.921	9.6709
10.7876	430.069	9.73926
10.7929	426.617	9.80762
10.79846	424.987	9.87598
10.8043	429.301	9.94434
10.8099	434.3996	10.0127
10.81534	436.87	10.0811
10.8215	444.878	10.1494
10.827	452.001	10.2178
10.8325	457.889	10.2861
10.8382	463.923	10.3545
10.84447	467.06	10.4229
10.8501	467.4953	10.4912
10.8549	466.177	10.55957
10.86089	467.0087	10.62793
10.8662	469.219	10.6963
10.8728	474.262	10.7646
10.8788	478.76	10.833
10.8837	486.407	10.9014
10.8889	492.64	10.9697
10.895	500.785	11.0381
10.901	503.849	11.1064
10.9065	505.136	11.1748
10.91245	504.63	11.2432
10.9172	505.893	11.3115
10.9241	506.9834	11.3799
10.9295	508.947	11.4482
10.9352	514.081	11.5166
10.9401	518.019	11.585
10.9465	526.282	11.65332
10.9522	535.798	11.72168
10.95742	540.887	11.79
10.9643	541.503	11.8584
10.969	541.308	11.9268
10.97512	545.978	11.9951
10.9802	546.649	12.0635
10.9863	545.944	12.1318
10.9924	550.009	12.2002
10.9977	554.92	12.2686
11.0033	558.643	12.3369
11.0092	567.136	12.4053
11.0146	575.992	12.4736
11.02053	577.661	12.542
11.02667	576.338	12.6104
11.0324	580.037	12.6787
11.03737	583.432	12.74707
11.04383	580.945	12.81543
11.0492	584.151	12.8838
11.0557	588.509	12.9521
11.0603	592.06	13.0205
11.0666	600.335	13.0889
11.0721	608.887	13.1572
11.0772	612.274	13.2256
11.0832	612.317	13.2939
11.089	617.52	13.3623
11.0949	620.75	13.4307
11.101	617.6767	13.499
11.10655	618.292	13.5674
11.1114	621.6792	13.6357
11.1175	626.5437	13.7041
11.1243	631.638	13.7725
11.12858	639.559	13.84082
11.1352	645.8512	13.90918
11.13939	648.005	13.9775
11.146	650.763	14.0459
11.1517	655.9267	14.1143
11.1568	654.183	14.1826
11.1633	654.936	14.251
11.1687	655.628	14.3193
11.1751	659.233	14.3877
11.1803	664.82	14.4561
11.1854	672.2052	14.5244
11.1914	676.075	14.5928
11.1965	680.46	14.6611
11.2031	686.214	14.7295
11.2088	692.428	14.7979
11.215	689.154	14.8662
11.2189	690.056	14.93457
11.2265	691.411	15.00293
11.2308	691.297	15.0713
11.2366	697.372	15.1396
11.2421	703.7937	15.208
11.249	707.539	15.2764
11.2551	711.341	15.3447
11.2604	719.27	15.4131
11.26529	724.784	15.4814
11.2707	722.881	15.5498
11.277	725.264	15.6182
11.2821	726.174	15.6865
11.288	724.186	15.7549
11.294	727.693	15.8232
11.2989	733.507	15.8916
11.3057	735.841	15.96
11.3107	739.186	16.02832
11.3169	746.567	16.09668
11.3233	756.3869	16.165
11.3274	756.207	16.2334
11.334	757.835	16.3018
11.3404	761.161	16.3701
11.3443	759.138	16.4385
11.3508	759.313	16.5068
11.356	762.934	16.5752
11.3627	769.949	16.6436
11.3675	768.769	16.7119
11.3734	775.832	16.7803
11.3795	786.008	16.8486
11.3853	788.533	16.917
11.3914	789.808	16.9854
11.397	791.686	17.0537
11.4022	790.7038	17.12207
11.40762	793.386	17.19043
11.4145	791.989	17.2588
11.4187	795.373	17.3271
11.4244	800.188	17.3955
11.4305	804.272	17.4639
11.4358	812.792	17.5322
11.4421	818.428	17.6006
11.4481	820.187	17.6689
11.454	823.513	17.7373
11.4587	823.166	17.8057
11.464	822.99	17.874
11.4704	823.437	17.9424
11.4775	824.914	18.0107
11.4815	826.161	18.0791
11.4875	830.675	18.1475
11.49361	838.679	18.21582
11.499	844.654	18.28418
11.505	848.495	18.3525
11.5107	851.932	18.4209
11.5164	852.39	18.4893
11.5217	852.855	18.5576
11.5275	852.754	18.626
11.5344	853.605	18.6943
11.5393	853.587	18.7627
11.5443	855.86	18.8311
11.5496	865.05	18.8994
11.5554	868.667	18.9678
11.5615	873.9472	19.0361
11.56689	879.984	19.1045
11.5729	880.821	19.1729
11.5791	880.19	19.2412
11.58447	881.788	19.30957
11.5893	881.2243	19.37793
11.5959	878.373	19.4463
11.6013	879.626	19.5146
11.6066	887.764	19.583
11.6131	893.709	19.6514
11.6188	895.992	19.7197
11.6241	903.37	19.7881
11.6304	907.846	19.8564
11.63608	904.696	19.9248
11.6412	906.062	19.9932
11.6434	903.114	20.0225

Data Header:			0.254_solid_uprint_typei_090_r0			Time:	30.22583	s	4/15/2019 3:01:27 PM
Data Acquisition:	Timed
Station Name:	ft40.cfg
Test File Name:	monotonic_0.2540_typei_solid_090_uprint.tst
Displacement	Force	Running Time
mm	N	s
11.64509	906.859	20.0322
11.6479	901.427	20.0713
11.6518	915.5733	20.1104
11.6549	905.475	20.1494
11.65818	908.277	20.1885
11.66171	918.5141	20.2275
11.6648	908.248	20.2666
11.6678	917.2876	20.3057
11.6706	920.224	20.3447
11.6742	912.94	20.3838
11.6774	922.991	20.4229
11.68099	919.19	20.4619
11.6839	919.052	20.501
11.6879	929.126	20.54
11.6906	918.971	20.5791
11.6926	927.6731	20.6182
11.6958	930.572	20.6572
11.69951	921.564	20.6963
11.7036	934.824	20.7354
11.7063	927.965	20.7744
11.7101	927.388	20.8135
11.7132	937.391	20.8525
11.7158	927.144	20.8916
11.72009	934.603	20.9307
11.7222	936.882	20.9697
11.7258	930.596	21.0088
11.7292	937.471	21.0479
11.733	935.824	21.0869
11.7364	935.689	21.126
11.7391	942.177	21.165
11.7427	934.454	21.2041
11.74535	944.289	21.2432
11.7492	942.745	21.2822
11.7523	937.694	21.3213
11.7558	950.278	21.3604
11.76	941.335	21.3994
11.7613	945.719	21.4385
11.7637	953.226	21.4775
11.7688	942.371	21.5166
11.7718	951.806	21.5557
11.7743	955.308	21.5947
11.7783	945.239	21.6338
11.782	955.086	21.6729
11.7844	953.683	21.7119
11.7877	949.899	21.751
11.7902	960.188	21.79
11.7946	949.6767	21.8291
11.7977	959.802	21.8682
11.79985	959.181	21.9072
11.8041	954.475	21.9463
11.8085	962.969	21.9854
11.8106	958.201	22.0244
11.8147	957.888	22.0635
11.8182	965.818	22.1025
11.8203	958.314	22.1416
11.824	962.71	22.1807
11.8268	967.461	22.2197
11.8312	956.708	22.2588
11.8334	968.543	22.2979
11.8371	961.812	22.3369
11.84037	961.754	22.376
11.844	968.725	22.415
11.8478	960.1488	22.4541
11.8495	970.018	22.4932
11.8537	966.202	22.5322
11.8559	962.985	22.5713
11.859	971.641	22.6104
11.8617	963.877	22.6494
11.86668	965.0697	22.6885
11.8693	976.762	22.7275
11.8718	963.846	22.7666
11.8756	970.995	22.8057
11.8784	975.917	22.8447
11.88295	964.055	22.8838
11.8863	975.7749	22.9229
11.8887	971.072	22.9619
11.8921	968.11	23.001
11.8952	978.167	23.04
11.8988	968.963	23.0791
11.9015	973.887	23.1182
11.9051	975.608	23.1572
11.9084	970.693	23.1963
11.9118	978.458	23.2354
11.9141	973.452	23.2744
11.9188	970.902	23.3135
11.9228	981.706	23.3525
11.9237	970.0307	23.3916
11.9283	978.25	23.4307
11.9303	980	23.4697
11.9349	970.589	23.5088
11.9379	981.277	23.5479
11.9402	973.4126	23.5869
11.9436	973.121	23.626
11.9461	979.485	23.665
11.9501	970.6051	23.7041
11.9542	976.099	23.7432
11.9569	976.947	23.7822
11.9616	970.011	23.8213
11.9633	977.65	23.8604
11.9667	972.0155	23.8994
11.96977	970.5744	23.9385
11.9729	981.47	23.9775
11.9763	968.4834	24.0166
11.9791	977.113	24.0557
11.9839	978.659	24.0947
11.9859	968.013	24.1338
11.9901	980.208	24.1729
11.9925	976.042	24.2119
11.996	971.165	24.251
12	980.36	24.29
12.0025	972.33	24.3291
12.0059	975.069	24.3682
12.00973	978.675	24.4072
12.01241	970.773	24.4463
12.0155	979.269	24.4854
12.0196	973.017	24.5244
12.0214	973.095	24.5635
12.0255	981.9303	24.6025
12.0284	970.62	24.6416
12.03157	978.347	24.6807
12.0342	978.061	24.7197
12.0392	970.075	24.7588
12.0409	977.0144	24.7979
12.0448	972.7807	24.8369
12.0487	970.486	24.876
12.0516	978.407	24.915
12.0555	968.574	24.9541
12.0576	971.928	24.9932
12.0616	973.902	25.0322
12.0642	965.41	25.0713
12.0677	976.51	25.1104
12.0708	968.096	25.1494
12.075	969.96	25.1885
12.0771	976.375	25.2275
12.0809	962.561	25.2666
12.0835	972.021	25.3057
12.08788	971.699	25.3447
12.08954	962.373	25.3838
12.0947	971.857	25.4229
12.097	968.8797	25.4619
12.1011	963.595	25.501
12.1035	972.449	25.54
12.1073	964.4	25.5791
12.1095	967.327	25.6182
12.1136	969.622	25.6572
12.1166	961.764	25.6963
12.1193	969.826	25.7354
12.1229	963	25.7744
12.1273	965.486	25.8135
12.1306	970.301	25.8525
12.1333	962.036	25.8916
12.1363	970.043	25.9307
12.14	968.851	25.9697
12.1424	960.209	26.0088
12.1463	970.865	26.0479
12.1497	963.252	26.0869
12.153	961.144	26.126
12.1561	970.555	26.165
12.1586	958.496	26.2041
12.163	966.295	26.2432
12.16486	964.771	26.2822
12.1684	959.293	26.3213
12.1717	965.924	26.3604
12.1752	960.959	26.3994
12.1786	958.562	26.4385
12.1831	965.072	26.4775
12.1846	954.591	26.5166
12.1874	960.31	26.5557
12.1924	964.379	26.5947
12.1963	951.871	26.6338
12.19784	963.826	26.6729
12.201	956.305	26.7119
12.2054	953.852	26.751
12.2083	962.358	26.79
12.2121	954.228	26.8291
12.2133	955.451	26.8682
12.2182	957.603	26.9072
12.2204	953.663	26.9463
12.2235	957.607	26.9854
12.2269	954.367	27.0244
12.2311	952.063	27.0635
12.2339	956.637	27.1025
12.2373	946.835	27.1416
12.2404	952.481	27.1807
12.2433	948.666	27.2197
12.2516	-42.1824	27.2588
12.2522	-36.1982	27.2979
12.2541	-43.8959	27.3369
12.2572	-44.079	27.376
12.2619	-34.8901	27.415
12.26363	-44.3085	27.4541
12.26744	-40.09642	27.4932
12.271	-39.1197	27.5322
12.2738	-46.01873	27.5713
12.2774	-35.1598	27.6104
12.2795	-41.0176	27.6494
12.2843	-43.534	27.6885
12.2868	-35.5014	27.7275
12.2889	-47.3235	27.7666
12.2926	-39.9374	27.8057
12.2958	-39.3631	27.8447
12.2998	-47.4834	27.8838
12.3025	-35.9442	27.9229
12.3071	-44.23135	27.9619
12.3096	-45.8581	28.001
12.3124	-36.8736	28.04
12.3153	-43.6384	28.0791
12.3178	-43.0153	28.1182
12.3222	-39.9505	28.1572
12.32545	-44.39941	28.1963
12.3293	-40.11121	28.2354
12.3319	-42.9176	28.2744
12.3346	-44.1213	28.3135
12.3386	-37.239	28.3525
12.3411	-47.92907	28.3916
12.3454	-36.3371	28.4307
12.3471	-41.4655	28.4697
12.3516	-46.1247	28.5088
12.35502	-36.4594	28.5479
12.3576	-43.59882	28.5869
12.361	-42.45787	28.626
12.3649	-34.5986	28.665
12.3676	-44.0478	28.7041
12.3723	-40.2293	28.7432
12.374	-37.141	28.7822
12.3772	-46.6746	28.8213
12.3806	-36.0829	28.8604
12.3833	-41.0756	28.8994
12.388	-41.9986	28.9385
12.3902	-35.2938	28.9775
12.3942	-43.7101	29.0166
12.3966	-39.6187	29.0557
12.4	-40.8917	29.0947
12.4036	-46.5538	29.1338
12.40653	-38.1619	29.1729
12.4092	-44.6141	29.2119
12.4138	-44.1739	29.251
12.4162	-37.6007	29.29
12.4198	-48.4071	29.3291
12.423	-44.4194	29.3682
12.4263	-41.0901	29.4072
12.4308	-46.0905	29.4463
12.4333	-40.0919	29.4854
12.4367	-43.8993	29.5244
12.44	-42.7297	29.5635
12.4431	-40.8001	29.6025
12.445	-47.8645	29.6416
12.4496	-39.6865	29.6807
12.4519	-42.7519	29.7197
12.4555	-46.2946	29.7588
12.4598	-35.9668	29.7979
12.4618	-45.7764	29.8369
12.4651	-44.5823	29.876
12.4693	-34.3152	29.915
12.4716	-46.9546	29.9541
12.4751	-36.7687	29.9932
12.4786	-37.2948	30.0322
12.481	-45.6485	30.0713
12.4843	-35.8165	30.1104
12.4886	-41.1929	30.1494
12.4925	-42.9562	30.1885
12.4935	-40.0234	30.2178