File: data/processed_data_files/tensile/0.254_hd_uprint_typeiv_4545_r(10).dat
MTS793|BTW|ENU|1|2|.|/|:|1|0|0|A

Data Header:			0.254_hd_uprint_typeiv_4545_r0			Time:	20.0178	s	4/13/2019 7:58:22 PM
Data Acquisition:	Timed
Station Name:	ft40.cfg
Test File Name:	monotonic_0.2540_typeiv_hd_4545_uprint.tst
Displacement	Force	Running Time
mm	N	s
-40.0347	-122.947	0.0227051
-40.0314	-121.631	0.0910645
-40.026	-118.154	0.159424
-40.0191	-115.065	0.2277832
-40.0146	-114.8187	0.296143
-40.0075	-115.1149	0.364502
-40.0032	-114.158	0.432861
-39.9977	-105.764	0.5012207
-39.9918	-100.872	0.56958
-39.9852	-98.1087	0.637939
-39.9806	-89.9676	0.706299
-39.9749	-88.09449	0.7746582
-39.9687	-83.7046	0.843018
-39.9628	-79.719	0.911377
-39.958	-82.1049	0.979736
-39.95293	-82.8727	1.0481
-39.9471	-77.8857	1.11646
-39.9399	-73.1104	1.18481
-39.93536	-70.2507	1.25317
-39.9293	-65.8997	1.32153
-39.925	-57.7078	1.38989
-39.9179	-56.2442	1.458252
-39.912	-51.4868	1.52661
-39.9052	-46.6553	1.59497
-39.9013	-46.9654	1.66333
-39.8951	-48.3983	1.73169
-39.8906	-46.2403	1.80005
-39.8835	-38.905	1.86841
-39.8775	-37.9282	1.93677
-39.8719	-33.2904	2.005127
-39.8658	-25.8234	2.07349
-39.8611	-22.6525	2.14185
-39.8543	-18.7009	2.21021
-39.8499	-14.2735	2.27856
-39.8431	-13.6757	2.34692
-39.8376	-14.3697	2.41528
-39.8326	-12.8136	2.48364
-39.8264	-7.79899	2.552002
-39.821	-5.492836	2.62036
-39.8147	-2.76579	2.68872
-39.8094	3.697073	2.75708
-39.8046	8.80183	2.82544
-39.7979	13.8732	2.8938
-39.7926	18.9821	2.96216
-39.78664	18.5203	3.03052
-39.7817	18.5373	3.098877
-39.7748	22.2213	3.16724
-39.7697	27.6623	3.2356
-39.76458	26.8118	3.30396
-39.7579	31.6949	3.37231
-39.7524	34.2324	3.44067
-39.747	41.8574	3.50903
-39.7407	46.3232	3.57739
-39.7362	50.4894	3.645752
-39.7295	52.2497	3.71411
-39.7234	53.6338	3.78247
-39.7188	57.973	3.85083
-39.7126	60.9432	3.91919
-39.7075	59.9178	3.98755
-39.7002	64.935	4.05591
-39.69521	68.2726	4.12427
-39.6897	72.0883	4.192627
-39.6836	77.4411	4.26099
-39.6783	81.79	4.32935
-39.6725	84.2992	4.39771
-39.667	87.7613	4.46606
-39.6618	93.4656	4.53442
-39.656	94.1852	4.60278
-39.6498	96.0792	4.67114
-39.6437	97.4242	4.739502
-39.6384	100.021	4.80786
-39.633	102.79	4.87622
-39.6269	110.215	4.94458
-39.6219	113.848	5.01294
-39.61639	112.701	5.0813
-39.6104	119.014	5.14966
-39.6047	126.727	5.21802
-39.5989	124.397	5.286377
-39.5932	127.579	5.35474
-39.5877	131.54	5.4231
-39.5824	130.031	5.49146
-39.5772	133.719	5.55981
-39.5702	138.549	5.62817
-39.56448	141.925	5.69653
-39.5582	144.838	5.76489
-39.5526	150.23	5.833252
-39.5479	159.348	5.90161
-39.5424	158.677	5.96997
-39.5372	159.835	6.03833
-39.52985	164.533	6.10669
-39.52483	164.413	6.17505
-39.5195	165.793	6.24341
-39.5146	170.287	6.31177
-39.5082	171.837	6.380127
-39.50259	174.327	6.44849
-39.4963	181.555	6.51685
-39.4913	189.9137	6.58521
-39.4852	190.88	6.65356
-39.4793	193.41	6.72192
-39.4728	195.811	6.79028
-39.4673	195.893	6.85864
-39.4622	197.667	6.927002
-39.4572	200.332	6.99536
-39.4508	202.549	7.06372
-39.4458	205.978	7.13208
-39.4387	212.116	7.20044
-39.4331	219.169	7.2688
-39.4279	221.1815	7.33716
-39.4225	223.758	7.40552
-39.41745	228.337	7.473877
-39.4103	229.479	7.54224
-39.4059	229.908	7.6106
-39.39909	231.683	7.67896
-39.3938	230.593	7.74731
-39.3879	235.165	7.81567
-39.3827	241.672	7.88403
-39.3772	248.304	7.95239
-39.3712	251.922	8.020752
-39.3656	255.344	8.08911
-39.3595	257.02	8.15747
-39.354	260.364	8.22583
-39.3489	260.802	8.29419
-39.3439	261.543	8.36255
-39.33654	260.667	8.43091
-39.3316	265.196	8.49927
-39.3256	272.084	8.567627
-39.3202	275.2355	8.63599
-39.31411	282.055	8.70435
-39.3078	286.995	8.77271
-39.3027	287.956	8.84106
-39.2976	292.033	8.90942
-39.2914	293.564	8.97778
-39.28614	291.799	9.04614
-39.28043	289.286	9.114502
-39.2744	294.92	9.18286
-39.2691	300.233	9.25122
-39.2633	302.19	9.31958
-39.2571	308.053	9.38794
-39.2521	314.1561	9.4563
-39.2465	315.918	9.52466
-39.2398	319.338	9.59302
-39.2352	322.446	9.661377
-39.229	321.33	9.72974
-39.2231	317.884	9.7981
-39.217	323.535	9.86646
-39.2127	327.369	9.93481
-39.2067	329.785	10.0032
-39.2003	335.307	10.0715
-39.1955	342.0426	10.1399
-39.1886	344.291	10.2083
-39.1842	347.066	10.2766
-39.1785	350.906	10.345
-39.1726	349.897	10.41333
-39.166	349.097	10.4817
-39.1601	353.244	10.55
-39.1544	354.72	10.6184
-39.1485	357.163	10.6868
-39.1426	360.35	10.7551
-39.1381	366.868	10.8235
-39.1336	370.077	10.8918
-39.1283	373.062	10.9602
-39.1209	378.148	11.0286
-39.1147	376.457	11.0969
-39.1085	376.452	11.1653
-39.10397	380.514	11.2336
-39.0981	380.826	11.302
-39.0915	382.935	11.3704
-39.08588	385.564	11.4387
-39.081	390.3652	11.50708
-39.0753	397.019	11.5754
-39.0698	400.1618	11.6438
-39.0637	402.308	11.7122
-39.0587	403.262	11.7805
-39.0518	404.951	11.8489
-39.04668	407.608	11.9172
-39.03973	407.605	11.9856
-39.0358	408.4827	12.054
-39.0298	411.132	12.1223
-39.0243	413.9743	12.1907
-39.0187	418.323	12.259
-39.0132	424.0676	12.3274
-39.0077	425.717	12.3958
-39.0014	427.802	12.4641
-38.9954	429.86	12.5325
-38.9892	433.665	12.60083
-38.9839	434.106	12.6692
-38.9778	434.247	12.7375
-38.97282	435.463	12.8059
-38.9669	435.196	12.8743
-38.9618	441.916	12.9426
-38.9555	446.62	13.011
-38.9494	448.45	13.0793
-38.9444	448.679	13.1477
-38.9386	453.284	13.2161
-38.93251	456.939	13.2844
-38.9282	454.219	13.3528
-38.9216	456.438	13.4211
-38.9156	458.522	13.4895
-38.9101	457.0065	13.5579
-38.9049	460.836	13.6262
-38.8982	466.117	13.69458
-38.8936	467.524	13.7629
-38.8873	468.6803	13.8313
-38.8815	474.792	13.8997
-38.8751	476.503	13.968
-38.8699	476.63	14.0364
-38.864	476.771	14.1047
-38.8585	478.005	14.1731
-38.853	476.562	14.2415
-38.8483	478.281	14.3098
-38.8416	481.998	14.3782
-38.8361	482.953	14.4465
-38.8299	484.764	14.5149
-38.82478	490.541	14.5833
-38.81881	495.406	14.6516
-38.813	493.535	14.72
-38.8074	495.088	14.78833
-38.8017	495.708	14.8567
-38.7967	493.737	14.925
-38.7895	493.147	14.9934
-38.7836	496.9664	15.0618
-38.7787	495.74	15.1301
-38.7734	495.754	15.1985
-38.76685	504.605	15.2668
-38.762	508.146	15.3352
-38.7564	507.073	15.4036
-38.7503	507.1814	15.4719
-38.7447	507.712	15.5403
-38.7393	505.251	15.6086
-38.734	503.941	15.677
-38.7283	504.138	15.7454
-38.723	503.188	15.8137
-38.7164	504.536	15.88208
-38.7111	510.952	15.9504
-38.70541	512.612	16.0188
-38.7004	513.629	16.0872
-38.69331	515.566	16.1555
-38.6887	510.842	16.2239
-38.6825	511.682	16.2922
-38.6772	510.151	16.3606
-38.67046	507.734	16.429
-38.664	504.947	16.4973
-38.6596	508.221	16.5657
-38.65353	511.435	16.634
-38.6477	512.911	16.7024
-38.6418	515.297	16.7708
-38.6371	517.2384	16.8391
-38.6318	512.2641	16.9075
-38.6253	512.89	16.97583
-38.6205	512.452	17.0442
-38.614	506.924	17.1125
-38.6077	503.317	17.1809
-38.6015	505.082	17.2493
-38.5955	508.719	17.3176
-38.5908	508.868	17.386
-38.5854	510.634	17.4543
-38.58	515.952	17.5227
-38.574	511.293	17.5911
-38.5676	512.8045	17.6594
-38.5619	510.9393	17.7278
-38.5567	505.479	17.7961
-38.55159	501.324	17.8645
-38.54594	503.861	17.9329
-38.5393	506.359	18.0012
-38.5328	504.167	18.06958
-38.5278	507.476	18.1379
-38.5213	511.11	18.2063
-38.5164	509.595	18.2747
-38.5113	510.4866	18.343
-38.50452	510.359	18.4114
-38.5001	505.102	18.4797
-38.4948	501.007	18.5481
-38.4883	502.741	18.6165
-38.4829	503.453	18.6848
-38.4763	502.254	18.7532
-38.4706	503.824	18.8215
-38.4656	507.522	18.8899
-38.4597	507.073	18.9583
-38.45298	507.537	19.0266
-38.4488	508.655	19.095
-38.4424	502.988	19.16333
-38.4382	499.448	19.2317
-38.4315	501.32	19.3
-38.4259	500.722	19.3684
-38.4208	498.504	19.4368
-38.4152	500.211	19.5051
-38.408	504.992	19.5735
-38.4034	504.106	19.6418
-38.3972	506.048	19.7102
-38.3916	507.177	19.7786
-38.3866	504.37	19.8469
-38.38	500.718	19.9153
-38.3739	501.382	19.9836
-38.3722	500.069	20.0129

Data Header:			0.254_hd_uprint_typeiv_4545_r0			Time:	38.55542	s	4/13/2019 7:58:41 PM
Data Acquisition:	Timed
Station Name:	ft40.cfg
Test File Name:	monotonic_0.2540_typeiv_hd_4545_uprint.tst
Displacement	Force	Running Time
mm	N	s
-38.37146	505.327	20.0227
-38.36615	506.095	20.0911
-38.3596	505.081	20.1594
-38.3539	503.259	20.2278
-38.34856	499.506	20.2961
-38.3424	495.536	20.3645
-38.3375	496.167	20.4329
-38.3294	499.648	20.5012
-38.3252	498.1174	20.56958
-38.3186	501.244	20.6379
-38.314	505.375	20.7063
-38.3087	503.737	20.7747
-38.3022	502.698	20.843
-38.2968	503.6701	20.9114
-38.291	498.967	20.9797
-38.2857	495.269	21.0481
-38.2802	495.77	21.1165
-38.2745	496.943	21.1848
-38.268	496.524	21.2532
-38.263	498.999	21.3215
-38.2574	501.24	21.3899
-38.2517	501.485	21.4583
-38.2454	502.32	21.5266
-38.2395	501.219	21.595
-38.23436	497.493	21.66333
-38.2276	494.865	21.7317
-38.2234	495.43	21.8
-38.21653	495.698	21.8684
-38.2107	495.63	21.9368
-38.2062	494.704	22.0051
-38.2002	497.261	22.0735
-38.1947	500.1763	22.1418
-38.1891	502.192	22.2102
-38.1834	500.347	22.2786
-38.1769	496.301	22.3469
-38.1717	496.831	22.4153
-38.16581	497.467	22.4836
-38.1602	494.236	22.552
-38.1551	492.596	22.6204
-38.148	495.302	22.6887
-38.1423	494.928	22.75708
-38.1376	497.881	22.8254
-38.1333	501.765	22.8938
-38.1265	499.871	22.9622
-38.1215	496.231	23.0305
-38.11488	495.447	23.0989
-38.1095	498.043	23.1672
-38.1037	494.489	23.2356
-38.0981	492.845	23.304
-38.0911	493.413	23.3723
-38.0858	493.181	23.4407
-38.0799	493.493	23.509
-38.0748	498.019	23.5774
-38.0689	498.059	23.6458
-38.0633	496.411	23.7141
-38.0584	497.6026	23.7825
-38.0523	500.049	23.85083
-38.0451	495.541	23.9192
-38.0403	491.143	23.9875
-38.035	493.972	24.0559
-38.0298	489.846	24.1243
-38.0229	492.151	24.1926
-38.0184	495.729	24.261
-38.0132	497.413	24.3293
-38.0078	493.84	24.3977
-38.00169	496.233	24.4661
-37.994	499.687	24.5344
-37.9894	495.369	24.6028
-37.98317	491.962	24.6711
-37.9783	492.961	24.7395
-37.97224	490.509	24.8079
-37.96619	489.9986	24.8762
-37.961	494.0733	24.94458
-37.9561	493.135	25.0129
-37.9494	494.654	25.0813
-37.9444	495.224	25.1497
-37.9379	498.474	25.218
-37.9324	496.938	25.2864
-37.9265	494.157	25.3547
-37.92186	491.321	25.4231
-37.9153	490.665	25.4915
-37.9094	491.626	25.5598
-37.904	491.375	25.6282
-37.89999	490.936	25.6965
-37.8928	492.945	25.7649
-37.8869	497.05	25.8333
-37.8813	496.868	25.9016
-37.876	496.302	25.97
-37.8706	495.969	26.03833
-37.8634	492.015	26.1067
-37.8579	491.556	26.175
-37.8524	489.749	26.2434
-37.8481	490.42	26.3118
-37.8409	488.56	26.3801
-37.8355	488.536	26.4485
-37.829	496.052	26.5168
-37.8239	494.971	26.5852
-37.8191	495.836	26.6536
-37.81279	495.712	26.7219
-37.8066	493.865	26.7903
-37.8015	493.599	26.8586
-37.7958	491.939	26.927
-37.7911	490.374	26.9954
-37.7853	485.784	27.0637
-37.7792	487.576	27.13208
-37.7734	494.804	27.2004
-37.7666	493.972	27.2688
-37.7626	493.249	27.3372
-37.7558	497.756	27.4055
-37.75045	493.065	27.4739
-37.7447	491.74	27.5422
-37.73877	490.115	27.6106
-37.7337	489.144	27.679
-37.7278	485.9928	27.7473
-37.7213	485.998	27.8157
-37.717	491.694	27.884
-37.7112	491.282	27.9524
-37.7053	493.238	28.0208
-37.6989	496.215	28.0891
-37.6935	494.5	28.1575
-37.6877	491.796	28.22583
-37.6822	491.027	28.2942
-37.67569	489.7334	28.3625
-37.6707	483.779	28.4309
-37.6656	484.704	28.4993
-37.66	489.878	28.5676
-37.6536	490.92	28.636
-37.64756	492.07	28.7043
-37.64201	494.804	28.7727
-37.6376	494.017	28.8411
-37.6316	493.672	28.9094
-37.624	491.915	28.9778
-37.619	487.721	29.0461
-37.6125	484.189	29.1145
-37.60701	484.858	29.1829
-37.6034	488.369	29.2512
-37.5965	490.1	29.31958
-37.5912	489.342	29.3879
-37.5856	491.845	29.4563
-37.5791	493.02	29.5247
-37.57375	494.371	29.593
-37.5676	494.066	29.6614
-37.5623	488.724	29.7297
-37.5571	485.9646	29.7981
-37.5511	486.686	29.8665
-37.5441	486.283	29.9348
-37.53981	487.06	30.0032
-37.5335	488.7511	30.0715
-37.5272	490.91	30.1399
-37.5212	491.097	30.2083
-37.51635	494.259	30.2766
-37.511	491.451	30.345
-37.5062	488.803	30.41333
-37.4998	486.895	30.4817
-37.4942	486.756	30.55
-37.4889	484.875	30.6184
-37.4827	484.479	30.6868
-37.4763	487.39	30.7551
-37.4708	488.221	30.8235
-37.4658	489.183	30.8918
-37.4606	492.538	30.9602
-37.4535	491.994	31.0286
-37.44767	487.6355	31.0969
-37.4418	487.9259	31.1653
-37.4372	488.286	31.2336
-37.4301	484.726	31.302
-37.42585	483.396	31.3704
-37.4199	486.545	31.4387
-37.4146	486.483	31.50708
-37.4087	487.356	31.5754
-37.4029	491.399	31.6438
-37.3975	492.821	31.7122
-37.3926	487.764	31.7805
-37.3855	487.501	31.8489
-37.3804	491.578	31.9172
-37.3746	484.633	31.9856
-37.369	481.953	32.054
-37.36272	485.245	32.1223
-37.3579	483.451	32.1907
-37.3521	485.0174	32.259
-37.3462	489.833	32.3274
-37.3392	491.847	32.3958
-37.3328	488.112	32.4641
-37.3296	488.095	32.5325
-37.323	490.496	32.60083
-37.3169	486.234	32.6692
-37.3106	483.495	32.7375
-37.3053	483.734	32.8059
-37.3002	482.068	32.8743
-37.2948	484.927	32.9426
-37.2884	488.373	33.011
-37.2831	488.263	33.0793
-37.2765	488.326	33.1477
-37.2717	487.591	33.2161
-37.2656	488.675	33.2844
-37.2606	488.15	33.3528
-37.2538	484.682	33.4211
-37.2484	484.195	33.4895
-37.24268	482.471	33.5579
-37.2375	482.603	33.6262
-37.2311	484.76	33.69458
-37.2263	484.001	33.7629
-37.221	485.145	33.8313
-37.2155	487.144	33.8997
-37.2091	487.95	33.968
-37.2032	487.422	34.0364
-37.1981	484.902	34.1047
-37.1909	484.186	34.1731
-37.186	481.234	34.2415
-37.1807	483.677	34.3098
-37.1751	482.385	34.3782
-37.1694	480.322	34.4465
-37.1642	482.24	34.5149
-37.1594	486.251	34.5833
-37.152	486.653	34.6516
-37.1474	485.335	34.72
-37.1406	485.619	34.78833
-37.1342	482.179	34.8567
-37.129	479.785	34.925
-37.1233	479.521	34.9934
-37.1174	480.331	35.0618
-37.1116	476.3396	35.1301
-37.106	477.917	35.1985
-37.1	484.515	35.2668
-37.0942	482.538	35.3352
-37.08952	481.151	35.4036
-37.0831	484.455	35.4719
-37.0768	479.905	35.5403
-37.0719	478.497	35.6086
-37.0668	475.32	35.677
-37.0606	474.466	35.7454
-37.0554	470.261	35.8137
-37.0496	469.031	35.88208
-37.0433	475.275	35.9504
-37.0381	471.521	36.0188
-37.0321	465.243	36.0872
-37.0246	-41.11536	36.1555
-37.021	-39.7209	36.2239
-37.0149	-41.7294	36.2922
-37.0098	-43.9408	36.3606
-37.0033	-44.2466	36.429
-36.9978	-47.1111	36.4973
-36.9923	-47.6074	36.5657
-36.9874	-41.5922	36.634
-36.981	-40.8864	36.7024
-36.975	-40.97118	36.7708
-36.96973	-38.577	36.8391
-36.9643	-38.0393	36.9075
-36.9579	-39.7016	36.97583
-36.953	-42.49678	37.0442
-36.94722	-43.42503	37.1125
-36.9399	-47.81181	37.1809
-36.9346	-46.7015	37.2493
-36.9298	-43.4451	37.3176
-36.9245	-42.3135	37.386
-36.9178	-41.0631	37.4543
-36.9125	-39.7192	37.5227
-36.9073	-39.5012	37.5911
-36.902	-37.6838	37.6594
-36.8956	-40.8944	37.7278
-36.8898	-44.5791	37.7961
-36.8832	-45.4022	37.8645
-36.8785	-44.2258	37.9329
-36.8726	-44.7939	38.0012
-36.8666	-45.0664	38.06958
-36.8612	-41.0704	38.1379
-36.8561	-39.4661	38.2063
-36.8505	-39.0243	38.2747
-36.845	-38.082	38.343
-36.8386	-38.22715	38.4114
-36.8337	-44.3602	38.4797
-36.8268	-46.15657	38.5481