File: data/processed_data_files/tensile/0.254_solid_uprint_typeiv_090_r(4).dat
MTS793|BTW|ENU|1|2|.|/|:|1|0|0|A

Data Header:			0.254_solid_uprint_typeiv_090_r0			Time:	20.0181	s	4/14/2019 1:06:27 AM
Data Acquisition:	Timed
Station Name:	ft40.cfg
Test File Name:	monotonic_0.2540_typeiv_solid_090_uprint.tst
Displacement	Force	Running Time
mm	N	s
-40.0411	-64.3732	0.0229492
-40.0411	-63.4738	0.0913086
-40.035	-58.327	0.159668
-40.0287	-57.0073	0.228027
-40.0232	-55.3238	0.296387
-40.0177	-52.66	0.364746
-40.0113	-51.7284	0.433105
-40.0071	-51.6418	0.501465
-40.001	-43.8916	0.569824
-39.9954	-37.8719	0.638184
-39.9894	-33.727	0.706543
-39.9837	-31.8479	0.774902
-39.9785	-24.6454	0.843262
-39.9724	-21.6347	0.911621
-39.966	-19.9409	0.97998
-39.9609	-17.9008	1.04834
-39.9562	-17.5058	1.1167
-39.94981	-16.7145	1.18506
-39.9446	-10.2855	1.253418
-39.938	-6.68764	1.32178
-39.9338	-1.4456	1.39014
-39.9265	3.77563	1.4585
-39.9216	7.69269	1.52686
-39.9157	13.2081	1.59521
-39.90976	15.92572	1.66357
-39.9047	16.8508	1.73193
-39.8988	15.9505	1.800293
-39.8926	17.689	1.86865
-39.8877	24.1761	1.93701
-39.8822	27.6325	2.00537
-39.8755	32.7971	2.07373
-39.8698	36.4708	2.14209
-39.8647	40.82375	2.21045
-39.8596	47.6181	2.27881
-39.85207	51.1672	2.347168
-39.84626	51.1073	2.41553
-39.841	53.395	2.48389
-39.835	54.7837	2.55225
-39.8297	58.67028	2.62061
-39.8241	60.3497	2.68896
-39.8182	65.394	2.75732
-39.8133	68.2674	2.82568
-39.8071	73.2954	2.894043
-39.8009	81.4258	2.9624
-39.7952	84.8931	3.03076
-39.79071	85.3263	3.09912
-39.7846	86.9319	3.16748
-39.7781	90.0849	3.23584
-39.7728	93.2755	3.3042
-39.7673	94.2116	3.37256
-39.7615	98.8005	3.440918
-39.75629	101.69	3.50928
-39.7509	106.031	3.57764
-39.7446	113.541	3.646
-39.7374	118.989	3.71436
-39.7335	115.82	3.78271
-39.7283	120.826	3.85107
-39.7222	126.803	3.91943
-39.7154	127.784	3.987793
-39.71	128.241	4.05615
-39.70459	132.279	4.12451
-39.69854	134.205	4.19287
-39.6935	137.764	4.26123
-39.6875	144.821	4.32959
-39.6804	149.622	4.39795
-39.6762	148.991	4.46631
-39.671	154.443	4.534668
-39.6649	160.854	4.60303
-39.6603	158.5258	4.67139
-39.6541	161.621	4.73975
-39.6478	164.114	4.80811
-39.64257	164.295	4.87646
-39.6361	171.649	4.94482
-39.6305	175.469	5.01318
-39.6242	179.098	5.081543
-39.6203	180.854	5.1499
-39.6143	187.951	5.21826
-39.6082	194.153	5.28662
-39.6025	193.011	5.35498
-39.5972	195.34	5.42334
-39.5919	198.587	5.4917
-39.5854	198.525	5.56006
-39.5795	199.905	5.628418
-39.5735	206.88	5.69678
-39.5684	207.342	5.76514
-39.5609	211.593	5.8335
-39.5566	219.955	5.90186
-39.551	224.676	5.97021
-39.54578	224.946	6.03857
-39.5395	227.137	6.10693
-39.5336	230.229	6.175293
-39.5284	231.417	6.24365
-39.52356	231.757	6.31201
-39.5161	237.632	6.38037
-39.512	238.958	6.44873
-39.5049	241.799	6.51709
-39.4995	250.973	6.58545
-39.4929	255.999	6.65381
-39.48859	257.442	6.722168
-39.4819	260.347	6.79053
-39.4768	263.959	6.85889
-39.4711	262.925	6.92725
-39.4666	265.712	6.99561
-39.4603	269.08	7.06396
-39.4529	268.182	7.13232
-39.4488	271.776	7.20068
-39.4431	281.987	7.269043
-39.4378	284.487	7.3374
-39.431	287.763	7.40576
-39.4254	291.877	7.47412
-39.42	293.706	7.54248
-39.4144	294.71	7.61084
-39.4084	297.301	7.6792
-39.402	299.207	7.74756
-39.3982	297.883	7.815918
-39.3917	301.3334	7.88428
-39.3863	308.816	7.95264
-39.38	312.679	8.021
-39.3739	317.1347	8.08936
-39.3687	321.69	8.15771
-39.3636	322.699	8.22607
-39.3574	324.7973	8.29443
-39.35	327.1095	8.362793
-39.34576	326.437	8.43115
-39.3406	326.255	8.49951
-39.3348	330.137	8.56787
-39.329	336.525	8.63623
-39.32333	341.3783	8.70459
-39.3158	344.509	8.77295
-39.3119	348.8421	8.84131
-39.306	351.255	8.909668
-39.3005	354.964	8.97803
-39.2945	357.071	9.04639
-39.2883	353.587	9.11475
-39.28294	355.615	9.18311
-39.2781	359.221	9.25146
-39.2717	362.33	9.31982
-39.2665	365.123	9.38818
-39.2599	370.46	9.456543
-39.2546	375.028	9.5249
-39.2495	378.276	9.59326
-39.2436	383.792	9.66162
-39.2375	385.032	9.72998
-39.2313	380.854	9.79834
-39.2264	381.812	9.8667
-39.2199	387.251	9.93506
-39.2161	385.412	10.0034
-39.2096	389.369	10.0718
-39.2035	395.379	10.1401
-39.1985	398.088	10.2085
-39.1916	404.085	10.2769
-39.1862	409.296	10.3452
-39.1802	410.333	10.4136
-39.1745	405.905	10.4819
-39.1686	407.413	10.5503
-39.164	412.128	10.6187
-39.1575	410.435	10.687
-39.1527	412.057	10.7554
-39.1463	418.898	10.82373
-39.1413	419.442	10.89209
-39.1359	423.992	10.9604
-39.1298	430.709	11.0288
-39.1234	430.996	11.0972
-39.11768	427.3912	11.1655
-39.1116	430.464	11.2339
-39.10627	435.1514	11.3022
-39.101	430.666	11.3706
-39.0946	432.087	11.439
-39.0901	436.1347	11.5073
-39.0841	435.989	11.5757
-39.0782	442.24	11.644
-39.0725	445.855	11.7124
-39.0672	445.873	11.7808
-39.06057	444.964	11.8491
-39.05645	449.274	11.91748
-39.0506	450.77	11.98584
-39.0432	447.515	12.0542
-39.0369	447.264	12.1226
-39.0323	450.641	12.1909
-39.0275	449.792	12.2593
-39.0218	452.818	12.3276
-39.0166	457.208	12.396
-39.0087	455.54	12.4644
-39.0041	456.182	12.5327
-38.9985	461.525	12.6011
-38.9934	459.665	12.6694
-38.9867	454.998	12.7378
-38.9813	457.544	12.8062
-38.9761	455.383	12.8745
-38.9701	455.998	12.9429
-38.9643	459.154	13.01123
-38.9579	460.844	13.07959
-38.953	460.23	13.1479
-38.9478	460.654	13.2163
-38.9412	465.718	13.2847
-38.9361	463.561	13.353
-38.9306	460.168	13.4214
-38.925	459.663	13.4897
-38.9186	456.251	13.5581
-38.913	457.036	13.6265
-38.9084	458.827	13.6948
-38.9022	457.385	13.7632
-38.8956	456.9436	13.8315
-38.89	458.896	13.8999
-38.8857	463.059	13.9683
-38.8781	462.516	14.0366
-38.874	459.003	14.10498
-38.8672	457.188	14.17334
-38.8616	454.883	14.2417
-38.8559	455.97	14.3101
-38.8512	453.131	14.3784
-38.8443	451.957	14.4468
-38.8392	452.906	14.5151
-38.8344	455.435	14.5835
-38.8275	458.64	14.6519
-38.8216	456.742	14.7202
-38.81691	457.879	14.7886
-38.8096	454.509	14.8569
-38.8056	451.4	14.9253
-38.7983	452.288	14.9937
-38.7934	449.906	15.062
-38.7878	445.359	15.1304
-38.7824	446.29	15.19873
-38.7756	450.694	15.26709
-38.7703	452.966	15.3354
-38.7643	454.9801	15.4038
-38.7594	454.013	15.4722
-38.7538	452.469	15.5405
-38.749	449.712	15.6089
-38.7421	449.364	15.6772
-38.7368	446.4176	15.7456
-38.7303	442.396	15.814
-38.7247	442.787	15.8823
-38.72	447.138	15.9507
-38.7134	447.609	16.019
-38.7082	448.632	16.0874
-38.7035	451.262	16.1558
-38.69696	448.215	16.2241
-38.6903	448.386	16.29248
-38.6851	447.287	16.36084
-38.6791	445.487	16.4292
-38.6744	439.349	16.4976
-38.6669	438.251	16.5659
-38.6621	442.858	16.6343
-38.65799	442.8389	16.7026
-38.6507	444.875	16.771
-38.6444	447.444	16.8394
-38.6393	445.484	16.9077
-38.6341	446.775	16.9761
-38.6277	445.786	17.0444
-38.6221	443.123	17.1128
-38.61684	436.285	17.1812
-38.6116	438.29	17.2495
-38.6047	441.872	17.3179
-38.5994	438.914	17.38623
-38.5941	442.353	17.45459
-38.5891	445.546	17.5229
-38.583	444.115	17.5913
-38.5771	445.011	17.6597
-38.5713	445.79	17.728
-38.5656	441.324	17.7964
-38.5599	435.601	17.8647
-38.5545	436.475	17.9331
-38.5488	441.226	18.0015
-38.5423	435.248	18.0698
-38.538	438.952	18.1382
-38.5308	441.267	18.2065
-38.5256	440.916	18.2749
-38.5195	443.06	18.3433
-38.5141	444.363	18.4116
-38.5081	439.944	18.47998
-38.50391	434.078	18.54834
-38.4976	437.289	18.6167
-38.4908	437.531	18.6851
-38.485	435.15	18.7534
-38.4803	434.759	18.8218
-38.4751	437.235	18.8901
-38.4684	438.582	18.9585
-38.463	441.733	19.0269
-38.4583	441.876	19.0952
-38.4515	441.879	19.1636
-38.4464	437.34	19.2319
-38.44035	438.175	19.3003
-38.4347	435.7496	19.3687
-38.4293	433.762	19.437
-38.4233	433.298	19.5054
-38.4185	436.196	19.57373
-38.4128	437.606	19.64209
-38.4064	439.25	19.7104
-38.4003	440.968	19.7788
-38.3946	439.28	19.8472
-38.3892	437.546	19.9155
-38.3841	440.068	19.9839
-38.3817	432.103	20.0132

Data Header:			0.254_solid_uprint_typeiv_090_r0			Time:	35.23584	s	4/14/2019 1:06:42 AM
Data Acquisition:	Timed
Station Name:	ft40.cfg
Test File Name:	monotonic_0.2540_typeiv_solid_090_uprint.tst
Displacement	Force	Running Time
mm	N	s
-38.3789	440.292	20.0229
-38.3748	435.915	20.0815
-38.37	436.369	20.1401
-38.3667	433.6	20.19873
-38.3608	434.688	20.2573
-38.3563	432.028	20.3159
-38.3517	433.978	20.3745
-38.3458	434.897	20.4331
-38.3415	435.018	20.4917
-38.336	439.357	20.5503
-38.3315	439.765	20.6089
-38.3274	440.156	20.66748
-38.3218	440.935	20.7261
-38.31662	441.819	20.7847
-38.3125	440.003	20.8433
-38.3069	440.2843	20.9019
-38.3021	440.058	20.9604
-38.2966	437.073	21.019
-38.2919	437.305	21.0776
-38.287	433.863	21.13623
-38.2831	435.514	21.1948
-38.2779	431.939	21.2534
-38.2714	434.484	21.312
-38.2675	433.206	21.3706
-38.26247	433.387	21.4292
-38.2574	436.9	21.4878
-38.252	434.672	21.5464
-38.2489	438.9827	21.60498
-38.2433	439.174	21.6636
-38.2395	442.536	21.7222
-38.2334	436.0571	21.7808
-38.2295	440.252	21.8394
-38.2239	435.148	21.8979
-38.219	436.809	21.9565
-38.2133	432.269	22.0151
-38.20969	433.299	22.07373
-38.2039	431.4906	22.1323
-38.1994	431.482	22.1909
-38.1956	433.816	22.2495
-38.1883	432.834	22.3081
-38.1849	433.814	22.3667
-38.17992	436.197	22.4253
-38.1746	439.2301	22.4839
-38.1704	437.59	22.54248
-38.1665	441.007	22.6011
-38.1617	440.979	22.6597
-38.1553	437.953	22.7183
-38.1509	441.869	22.7769
-38.146	437.114	22.8354
-38.1415	436.572	22.894
-38.1354	434.828	22.9526
-38.1303	436.265	23.01123
-38.1271	430.157	23.0698
-38.1218	431.722	23.1284
-38.116	433.032	23.187
-38.1113	432.976	23.2456
-38.1068	434.073	23.3042
-38.1019	435.4335	23.3628
-38.0963	437.981	23.4214
-38.0922	435.52	23.47998
-38.0866	439.9346	23.5386
-38.081	436.39	23.5972
-38.0778	438.324	23.6558
-38.0734	435.881	23.7144
-38.0681	437.984	23.7729
-38.0624	431.439	23.8315
-38.0575	434.951	23.8901
-38.0539	432.2926	23.94873
-38.0476	431.3111	24.0073
-38.04311	432.076	24.0659
-38.0376	433.358	24.1245
-38.0334	434.787	24.1831
-38.0279	434.391	24.2417
-38.0238	436.569	24.3003
-38.018	435.706	24.3589
-38.0131	440.643	24.41748
-38.0082	439.92	24.4761
-38.0038	438.73	24.5347
-37.9993	441.135	24.5933
-37.9948	439.063	24.6519
-37.9893	439.799	24.7104
-37.9838	433.683	24.769
-37.9791	436.74	24.8276
-37.9747	432.029	24.88623
-37.97	430.87	24.9448
-37.9648	432.17	25.0034
-37.9604	430.956	25.062
-37.9552	432.961	25.1206
-37.95	431.7785	25.1792
-37.9447	435.733	25.2378
-37.9398	431.728	25.2964
-37.9359	438.541	25.35498
-37.9306	435.021	25.4136
-37.9266	437.432	25.4722
-37.9215	434.729	25.5308
-37.9151	438.6853	25.5894
-37.9113	433.881	25.6479
-37.9062	434.163	25.7065
-37.9009	433.913	25.7651
-37.8962	431.134	25.82373
-37.8907	432.387	25.8823
-37.8866	431.744	25.9409
-37.8823	433.534	25.9995
-37.8779	430.721	26.0581
-37.872	435.465	26.1167
-37.8668	435.246	26.1753
-37.8623	435.3237	26.2339
-37.857	439.34	26.29248
-37.8534	437.116	26.3511
-37.8479	438.713	26.4097
-37.8425	438.0892	26.4683
-37.8375	438.287	26.5269
-37.8329	434.747	26.5854
-37.8282	436.393	26.644
-37.8221	432.072	26.7026
-37.8184	431.854	26.76123
-37.8133	430.91	26.8198
-37.8081	429.413	26.8784
-37.804	431.3551	26.937
-37.7985	429.713	26.9956
-37.7932	433.182	27.0542
-37.7894	430.873	27.1128
-37.784	436.213	27.1714
-37.7802	433.318	27.22998
-37.775	437.677	27.2886
-37.771	433.086	27.3472
-37.7646	439.576	27.4058
-37.76	433.987	27.4644
-37.7552	433.768	27.5229
-37.7497	433.759	27.5815
-37.7457	433.147	27.6401
-37.7399	430.819	27.69873
-37.7353	431.212	27.7573
-37.7302	433.25	27.8159
-37.7261	430.612	27.8745
-37.72094	432.456	27.9331
-37.7156	433.733	27.9917
-37.7112	434.023	28.0503
-37.7066	434.556	28.1089
-37.7014	437.295	28.16748
-37.69585	438.479	28.2261
-37.6911	436.036	28.2847
-37.6868	438.926	28.3433
-37.68317	436.533	28.4019
-37.6764	436.799	28.4604
-37.6727	434.161	28.519
-37.6682	432.243	28.5776
-37.6618	429.818	28.63623
-37.6581	430.949	28.6948
-37.6527	429.657	28.7534
-37.6483	427.903	28.812
-37.643	431.738	28.8706
-37.6383	430.074	28.9292
-37.634	433.375	28.9878
-37.6288	431.195	29.0464
-37.6224	436.701	29.10498
-37.6192	430.857	29.1636
-37.6141	436.3251	29.2222
-37.6095	435.397	29.2808
-37.60355	432.998	29.3394
-37.5993	432.911	29.3979
-37.5936	433.191	29.4565
-37.5883	429.287	29.5151
-37.5849	430.293	29.57373
-37.5798	430.36	29.6323
-37.5746	428.234	29.6909
-37.5697	427.659	29.7495
-37.5649	429.537	29.8081
-37.5594	429.868	29.8667
-37.55574	431.284	29.9253
-37.5502	432.6037	29.9839
-37.5458	434.695	30.04248
-37.5404	433.3378	30.1011
-37.5356	436.68	30.1597
-37.5299	435.775	30.2183
-37.5254	434.617	30.2769
-37.5218	432.283	30.3354
-37.5153	433.396	30.394
-37.5115	429.849	30.4526
-37.5069	428.997	30.51123
-37.501	428.0423	30.5698
-37.4973	425.777	30.6284
-37.4909	428.149	30.687
-37.4862	426.628	30.7456
-37.481	429.046	30.8042
-37.4764	427.142	30.8628
-37.471	432.9715	30.9214
-37.4676	430.186	30.97998
-37.4605	433.211	31.0386
-37.4574	430.934	31.0972
-37.45179	432.732	31.1558
-37.4473	430.313	31.2144
-37.4429	432.61	31.2729
-37.4379	430.207	31.3315
-37.4329	428.75	31.3901
-37.4283	429.356	31.44873
-37.4231	426.249	31.5073
-37.4188	425.662	31.5659
-37.4134	426.9523	31.6245
-37.4089	426.163	31.6831
-37.4041	425.835	31.7417
-37.398	428.003	31.8003
-37.3932	430.73	31.8589
-37.3886	429.195	31.91748
-37.3831	431.968	31.9761
-37.378	430.428	32.0347
-37.37405	431.385	32.0933
-37.3692	427.717	32.1519
-37.3637	429.677	32.2104
-37.3601	426.958	32.269
-37.3543	423.101	32.3276
-37.3493	423.619	32.38623
-37.3436	419.879	32.4448
-37.3402	420.45	32.5034
-37.33419	418.614	32.562
-37.3305	421.09	32.6206
-37.3247	417.183	32.6792
-37.3197	423.989	32.7378
-37.3155	417.049	32.7964
-37.309	-51.2767	32.85498
-37.3047	-40.0944	32.9136
-37.301	-39.3989	32.9722
-37.29694	-40.5876	33.0308
-37.2909	-39.7884	33.0894
-37.2861	-39.2781	33.1479
-37.2813	-41.385	33.2065
-37.2769	-41.5083	33.2651
-37.2715	-43.5801	33.32373
-37.26775	-45.7665	33.3823
-37.2621	-44.0918	33.4409
-37.2558	-43.4125	33.4995
-37.2524	-43.8209	33.5581
-37.2474	-42.9222	33.6167
-37.2428	-38.9997	33.6753
-37.2373	-41.67186	33.7339
-37.233	-37.5053	33.79248
-37.2286	-38.8664	33.8511
-37.2232	-36.58289	33.9097
-37.2175	-39.7558	33.9683
-37.213	-37.6693	34.0269
-37.2075	-42.3075	34.0854
-37.2032	-42.4261	34.144
-37.198	-41.701	34.2026
-37.194	-47.0362	34.26123
-37.1883	-46.6035	34.3198
-37.183	-47.464	34.3784
-37.1796	-43.6042	34.437
-37.1743	-47.4481	34.4956
-37.169	-43.1014	34.5542
-37.1636	-44.338	34.6128
-37.159	-41.1027	34.6714
-37.1545	-42.0203	34.72998
-37.1497	-38.8136	34.7886
-37.1452	-41.675	34.8472
-37.1398	-39.7744	34.9058
-37.1346	-38.7457	34.9644
-37.1302	-40.8374	35.0229
-37.1255	-42.35519	35.0815
-37.1216	-42.2888	35.1401
-37.1157	-41.9198	35.19873
-37.1127	-41.6636	35.228