File: data/processed_data_files/tensile/0.254_solid_uprint_typeiv_4545_r(6).dat
MTS793|BTW|ENU|1|2|.|/|:|1|0|0|A

Data Header:			0.254_solid_uprint_typeiv_4545_r0			Time:	20.01709	s	4/13/2019 7:01:33 PM
Data Acquisition:	Timed
Station Name:	ft40.cfg
Test File Name:	Type IV_Monotonic.tst
Displacement	Force	Running Time
mm	N	s
-40.0442	-208.335	0.0219727
-40.0438	-206.176	0.090332
-40.0378	-200.945	0.158691
-40.0316	-199.038	0.227051
-40.02655	-197.2252	0.29541
-40.0205	-192.9024	0.36377
-40.0153	-192.7545	0.432129
-40.0095	-187.013	0.500488
-40.0032	-181.313	0.568848
-39.998	-177.197	0.637207
-39.9915	-174.917	0.705566
-39.9857	-169.948	0.773926
-39.9813	-162.116	0.842285
-39.9756	-162.693	0.910645
-39.9706	-160.943	0.979004
-39.96299	-157.293	1.04736
-39.958	-157.822	1.11572
-39.95179	-152.931	1.184082
-39.9468	-147.374	1.25244
-39.9413	-145.121	1.3208
-39.9356	-141.208	1.38916
-39.9295	-133.977	1.45752
-39.9241	-127.115	1.52588
-39.9185	-126.315	1.59424
-39.9139	-123.6083	1.6626
-39.9059	-120.232	1.730957
-39.9004	-120.939	1.79932
-39.8953	-116.582	1.86768
-39.88895	-111.5488	1.93604
-39.8843	-110.402	2.00439
-39.87785	-108.012	2.07275
-39.87183	-99.25985	2.14111
-39.8667	-91.3475	2.20947
-39.8617	-90.0732	2.277832
-39.8559	-87.7402	2.34619
-39.85	-84.9361	2.41455
-39.8437	-82.9738	2.48291
-39.8379	-81.898	2.55127
-39.8327	-78.6386	2.61963
-39.8272	-75.0385	2.68799
-39.822	-73.4238	2.75635
-39.8157	-62.9944	2.824707
-39.8102	-57.04562	2.89307
-39.8036	-53.4234	2.96143
-39.7986	-50.354	3.02979
-39.793	-47.0924	3.09814
-39.7871	-46.6523	3.1665
-39.7812	-44.4557	3.23486
-39.7754	-41.2697	3.30322
-39.7702	-42.0911	3.371582
-39.7657	-38.2455	3.43994
-39.7587	-29.7662	3.5083
-39.7529	-23.5925	3.57666
-39.7473	-19.529	3.64502
-39.7428	-16.2905	3.71338
-39.7358	-12.2124	3.78174
-39.7306	-9.28917	3.8501
-39.7249	-7.42921	3.918457
-39.7186	-7.61401	3.98682
-39.7135	-7.90821	4.05518
-39.7078	-3.36552	4.12354
-39.7016	4.11164	4.19189
-39.6968	8.83108	4.26025
-39.6899	13.8675	4.32861
-39.6847	20.4986	4.39697
-39.6786	21.9454	4.465332
-39.6738	25.9795	4.53369
-39.6673	29.7934	4.60205
-39.66156	29.66065	4.67041
-39.65707	28.6252	4.73877
-39.6512	31.52594	4.80713
-39.64497	39.619	4.87549
-39.638	42.8241	4.94385
-39.6338	48.3374	5.012207
-39.6271	55.3906	5.08057
-39.6238	58.19268	5.14893
-39.618	60.9457	5.21729
-39.6113	65.6079	5.28564
-39.6044	66.5586	5.354
-39.5993	63.64212	5.42236
-39.5938	67.8457	5.49072
-39.588	76.1019	5.559082
-39.5822	78.9101	5.62744
-39.5779	82.2186	5.6958
-39.5707	90.4598	5.76416
-39.5663	93.0794	5.83252
-39.5608	97.6356	5.90088
-39.5543	101.535	5.96924
-39.54768	102.379	6.0376
-39.5428	100.003	6.105957
-39.5361	103.574	6.17432
-39.5304	109.308	6.24268
-39.5256	110.814	6.31104
-39.5205	115.854	6.37939
-39.5131	122.205	6.44775
-39.50856	127.741	6.51611
-39.503	131.3557	6.58447
-39.49757	134.708	6.652832
-39.4923	135.498	6.72119
-39.4857	135.503	6.78955
-39.4805	139.199	6.85791
-39.4754	144.058	6.92627
-39.4682	145.297	6.99463
-39.4624	148.806	7.06299
-39.457	154.86	7.13135
-39.45126	161.74	7.199707
-39.4458	167.635	7.26807
-39.44	170.261	7.33643
-39.4335	171.168	7.40479
-39.4286	171.829	7.47314
-39.4238	177.397	7.5415
-39.4169	178.409	7.60986
-39.4123	180.092	7.67822
-39.4059	184.036	7.746582
-39.4002	187.4335	7.81494
-39.3943	193.361	7.8833
-39.3886	199.323	7.95166
-39.3824	203.159	8.02002
-39.3777	204.892	8.08838
-39.3716	208.109	8.15674
-39.3659	212.406	8.2251
-39.3596	213.202	8.293457
-39.3542	214.073	8.36182
-39.34885	218.107	8.43018
-39.3434	220.0984	8.49854
-39.3369	225.4344	8.56689
-39.3327	232.3284	8.63525
-39.3259	236.4875	8.70361
-39.3217	235.826	8.77197
-39.3141	239.544	8.840332
-39.3085	247.507	8.90869
-39.3036	247.675	8.97705
-39.2982	247.554	9.04541
-39.2914	251.098	9.11377
-39.2859	254.01	9.18213
-39.2803	257.799	9.25049
-39.2752	263.893	9.31885
-39.2704	267.782	9.387207
-39.2645	268.431	9.45557
-39.2583	273.994	9.52393
-39.2523	281.18	9.59229
-39.2462	281.633	9.66064
-39.2401	281.262	9.729
-39.2348	285.619	9.79736
-39.2302	287.1918	9.86572
-39.2231	289.83	9.934082
-39.218	293.273	10.0024
-39.212	299.139	10.0708
-39.208	299.664	10.13916
-39.2008	304.68	10.20752
-39.1952	312.116	10.2759
-39.1901	313.654	10.3442
-39.184	315.016	10.4126
-39.1779	316.915	10.481
-39.1719	317.869	10.5493
-39.1676	319.306	10.6177
-39.1607	323.44	10.686
-39.1549	327.363	10.7544
-39.1491	330.294	10.8228
-39.1448	337.032	10.8911
-39.1388	344.3588	10.9595
-39.13166	345.944	11.0278
-39.126	347.91	11.0962
-39.1209	351.045	11.1646
-39.1155	348.1398	11.23291
-39.109	352.47	11.30127
-39.1051	353.045	11.3696
-39.0974	354.729	11.438
-39.0921	358.464	11.5063
-39.08704	366.123	11.5747
-39.0822	373.022	11.6431
-39.0759	374.568	11.7114
-39.0701	379.401	11.7798
-39.0644	380.5336	11.8481
-39.0584	378.4523	11.9165
-39.0522	380.9863	11.9849
-39.0463	384.194	12.0532
-39.0419	383.462	12.1216
-39.0359	383.8988	12.1899
-39.0303	393.9812	12.2583
-39.0233	399.301	12.32666
-39.0183	402.71	12.39502
-39.0131	407.486	12.4634
-39.0072	408.252	12.5317
-39.0019	409.899	12.6001
-38.9954	410.5603	12.6685
-38.9894	411.768	12.7368
-38.9836	410.332	12.8052
-38.979	410.249	12.8735
-38.9737	420.108	12.9419
-38.9679	424.595	13.0103
-38.9616	427.139	13.0786
-38.9554	433.271	13.147
-38.9499	437.342	13.2153
-38.944	438.487	13.2837
-38.9382	437.066	13.3521
-38.9333	438.7	13.42041
-38.9286	435.996	13.48877
-38.9199	437.649	13.5571
-38.916	445.446	13.6255
-38.9107	447.99	13.6938
-38.9042	451.72	13.7622
-38.8994	456.8588	13.8306
-38.8932	460.2558	13.8989
-38.88921	463.632	13.9673
-38.882	463.307	14.0356
-38.8767	463.829	14.104
-38.8712	460.866	14.1724
-38.8654	461.559	14.2407
-38.85899	467.482	14.3091
-38.8537	472.122	14.3774
-38.8468	475.4552	14.4458
-38.8413	479.506	14.51416
-38.838	482.762	14.58252
-38.8304	485.491	14.6509
-38.8238	488.048	14.7192
-38.8196	487.298	14.7876
-38.8143	484.6095	14.856
-38.8075	484.678	14.9243
-38.8023	489.026	14.9927
-38.7974	491.9332	15.061
-38.7916	495.443	15.1294
-38.7841	499.678	15.1978
-38.7796	502.344	15.2661
-38.7747	508.877	15.3345
-38.7678	510.097	15.4028
-38.7617	508.877	15.4712
-38.7577	505.423	15.5396
-38.7504	506.7439	15.60791
-38.7455	509.545	15.67627
-38.739	508.588	15.7446
-38.7337	511.401	15.813
-38.7268	517.032	15.8813
-38.7214	518.087	15.9497
-38.7157	525.081	16.0181
-38.7112	528.109	16.0864
-38.7059	525.6626	16.1548
-38.6994	521.489	16.2231
-38.6923	526.313	16.2915
-38.6881	527.0813	16.3599
-38.6814	524.751	16.4282
-38.6772	527.155	16.4966
-38.6704	529.854	16.5649
-38.6661	532.619	16.6333
-38.6598	535.424	16.70166
-38.6539	539.524	16.77002
-38.6492	538.518	16.8384
-38.6436	535.52	16.9067
-38.6366	539.425	16.9751
-38.6311	538.96	17.0435
-38.6253	535.44	17.1118
-38.6192	536.077	17.1802
-38.6138	538.5354	17.2485
-38.6087	540.8	17.3169
-38.6032	541.988	17.3853
-38.5968	545.349	17.4536
-38.5914	545.008	17.522
-38.5857	544.791	17.5903
-38.5804	546.296	17.6587
-38.5746	547.114	17.7271
-38.5691	543.966	17.79541
-38.5629	542.293	17.86377
-38.5564	541.4046	17.9321
-38.5504	543.074	18.0005
-38.5466	545.8	18.0688
-38.5403	547.631	18.1372
-38.5341	547.627	18.2056
-38.5289	548.527	18.2739
-38.5239	551.586	18.3423
-38.5171	550.511	18.4106
-38.5114	545.9726	18.479
-38.5054	545.008	18.5474
-38.5005	542.297	18.6157
-38.4958	544.885	18.6841
-38.4886	545.728	18.7524
-38.4829	544.318	18.8208
-38.478	545.016	18.88916
-38.4719	546.767	18.95752
-38.4655	549.3819	19.0259
-38.4607	548.331	19.0942
-38.4546	547.07	19.1626
-38.4493	545.072	19.231
-38.4436	540.189	19.2993
-38.43716	541.272	19.3677
-38.4327	542.801	19.436
-38.4263	539.369	19.5044
-38.4207	540.39	19.5728
-38.4145	545.903	19.6411
-38.4086	547.914	19.7095
-38.40453	546.125	19.7778
-38.3978	546.721	19.8462
-38.3924	545.961	19.9146
-38.3859	540.154	19.98291
-38.3836	543.141	20.0122

Data Header:			0.254_solid_uprint_typeiv_4545_r0			Time:	40.0181	s	4/13/2019 7:01:53 PM
Data Acquisition:	Timed
Station Name:	ft40.cfg
Test File Name:	Type IV_Monotonic.tst
Displacement	Force	Running Time
mm	N	s
-38.3831	543.603	20.022
-38.3779	543.674	20.0903
-38.3722	544.078	20.1587
-38.366	541.769	20.2271
-38.3617	540.052	20.29541
-38.3537	540.854	20.36377
-38.35	536.314	20.4321
-38.3434	537.4917	20.5005
-38.3374	538.549	20.5688
-38.3319	539.829	20.6372
-38.32663	539.105	20.7056
-38.3209	541.826	20.7739
-38.315	545.506	20.8423
-38.3087	540.018	20.9106
-38.3026	538.671	20.979
-38.2975	537.397	21.0474
-38.2921	534.1	21.1157
-38.28624	534.698	21.1841
-38.2796	536.467	21.2524
-38.27499	535.63	21.3208
-38.2699	535.976	21.38916
-38.2644	541.544	21.45752
-38.2577	543.007	21.5259
-38.2523	539.645	21.5942
-38.2468	538.22	21.6626
-38.2403	537.555	21.731
-38.2347	535.1004	21.7993
-38.2302	534.542	21.8677
-38.2231	533.282	21.936
-38.2179	531.094	22.0044
-38.2113	532.526	22.0728
-38.2064	536.814	22.1411
-38.2007	538.604	22.2095
-38.19492	536.66	22.2778
-38.1898	538.617	22.3462
-38.1826	536.0321	22.4146
-38.1767	533.288	22.48291
-38.1727	532.648	22.55127
-38.167	531.512	22.6196
-38.1619	527.9353	22.688
-38.1555	528.9826	22.7563
-38.1495	534.616	22.8247
-38.1446	538.6062	22.8931
-38.1381	537.055	22.9614
-38.1326	538.662	23.0298
-38.12669	536.7406	23.0981
-38.1205	535.188	23.1665
-38.1153	531.62	23.2349
-38.1097	528.813	23.3032
-38.1042	528.397	23.3716
-38.0992	528.2113	23.4399
-38.0928	534.244	23.5083
-38.0866	534.725	23.57666
-38.0814	535.933	23.64502
-38.075	535.363	23.7134
-38.0698	536.401	23.7817
-38.0641	536.802	23.8501
-38.0583	531.63	23.9185
-38.0522	528.157	23.9868
-38.0474	525.191	24.0552
-38.0418	527.532	24.1235
-38.035	530.724	24.1919
-38.0296	531.702	24.2603
-38.0237	534.853	24.3286
-38.0179	535.2204	24.397
-38.0131	533.703	24.4653
-38.0071	534.761	24.5337
-38.002	532.635	24.6021
-37.9958	528.379	24.67041
-37.99	525.083	24.73877
-37.9841	525.879	24.8071
-37.9781	528.273	24.8755
-37.9727	527.895	24.9438
-37.9668	531.656	25.0122
-37.9615	532.877	25.0806
-37.9558	532.357	25.1489
-37.9495	533.185	25.2173
-37.9445	533.761	25.2856
-37.9377	524.7713	25.354
-37.9327	523.716	25.4224
-37.9275	526.54	25.4907
-37.9209	525.4046	25.5591
-37.9158	525.686	25.6274
-37.9097	529.891	25.6958
-37.9047	530.924	25.76416
-37.8976	532.349	25.83252
-37.8933	532.823	25.9009
-37.8879	533.745	25.9692
-37.882	525.2807	26.0376
-37.8762	524.026	26.106
-37.8706	527.009	26.1743
-37.8646	527.073	26.2427
-37.8593	524.19	26.311
-37.8534	527.2879	26.3794
-37.8472	528.477	26.4478
-37.8423	529.924	26.5161
-37.8369	531.978	26.5845
-37.8306	531.816	26.6528
-37.8247	527.951	26.7212
-37.8188	525.668	26.7896
-37.8136	527.28	26.85791
-37.80735	524.539	26.92627
-37.8023	523.902	26.9946
-37.7966	524.532	27.063
-37.7914	526.005	27.1313
-37.7856	528.053	27.1997
-37.7799	531.739	27.2681
-37.7741	530.059	27.3364
-37.7669	527.338	27.4048
-37.7626	529.46	27.4731
-37.7559	527.711	27.5415
-37.7494	524.474	27.6099
-37.745	523.755	27.6782
-37.7394	523.676	27.7466
-37.7347	522.801	27.8149
-37.7275	527.344	27.8833
-37.7224	527.29	27.95166
-37.7162	528.074	28.02002
-37.7102	528.686	28.0884
-37.706	530.5824	28.1567
-37.6988	528.605	28.2251
-37.6935	525.051	28.2935
-37.6886	524.075	28.3618
-37.682	521.854	28.4302
-37.67704	523.158	28.4985
-37.67181	524.986	28.5669
-37.6656	525.969	28.6353
-37.65844	524.225	28.7036
-37.6535	526.237	28.772
-37.6475	531.058	28.8403
-37.6416	527.367	28.9087
-37.6366	526.394	28.9771
-37.6323	524.412	29.04541
-37.6259	520.538	29.11377
-37.619	522.205	29.1821
-37.6129	523.521	29.2505
-37.6089	523.339	29.3188
-37.6021	522.34	29.3872
-37.5971	526.356	29.4556
-37.5901	531.216	29.5239
-37.5861	526.11	29.5923
-37.5798	526.25	29.6606
-37.5746	525.2594	29.729
-37.5683	521.4353	29.7974
-37.5639	520.801	29.8657
-37.5568	522.043	29.9341
-37.5516	520.087	30.0024
-37.5459	519.3327	30.0708
-37.5402	523.96	30.13916
-37.5341	528.703	30.20752
-37.5279	527.393	30.2759
-37.5237	527.527	30.3442
-37.5167	527.3465	30.4126
-37.5113	521.529	30.481
-37.5061	521.6347	30.5493
-37.4997	521.164	30.6177
-37.4936	518.946	30.686
-37.488	518.501	30.7544
-37.4829	525.4632	30.8228
-37.4779	527.703	30.8911
-37.472	526.526	30.9595
-37.4651	528.122	31.0278
-37.4595	526.834	31.0962
-37.4542	524.753	31.1646
-37.45	522.078	31.23291
-37.4444	520.641	31.30127
-37.4373	517.427	31.3696
-37.4311	518.084	31.438
-37.42667	523.756	31.5063
-37.4205	523.706	31.5747
-37.4141	526.075	31.6431
-37.408	526.9856	31.7114
-37.403	527.741	31.7798
-37.397	526.478	31.8481
-37.3923	523.91	31.9165
-37.3862	519.092	31.9849
-37.3795	516.628	32.0532
-37.3739	518.143	32.1216
-37.3688	522.19	32.1899
-37.3638	520.737	32.2583
-37.3591	524.503	32.32666
-37.3511	527.196	32.39502
-37.346	525.703	32.4634
-37.3412	526.87	32.5317
-37.3341	524.504	32.6001
-37.3288	517.533	32.6685
-37.3241	515.785	32.7368
-37.3179	517.287	32.8052
-37.3127	518.53	32.8735
-37.3063	518.102	32.9419
-37.3005	524.486	33.0103
-37.2942	524.157	33.0786
-37.289	523.834	33.147
-37.2836	526.379	33.2153
-37.2782	526.5694	33.2837
-37.2727	520.845	33.3521
-37.2666	515.561	33.42041
-37.2603	519.188	33.48877
-37.2554	520.108	33.5571
-37.2497	518.108	33.6255
-37.2441	520.656	33.6938
-37.23798	523.2879	33.7622
-37.2334	522.724	33.8306
-37.2273	526.912	33.8989
-37.2201	526.089	33.9673
-37.2152	521.841	34.0356
-37.2104	518.322	34.104
-37.2035	521.305	34.1724
-37.1985	518.169	34.2407
-37.193	514.8941	34.3091
-37.1874	519.374	34.3774
-37.181	520.425	34.4458
-37.1744	522.424	34.51416
-37.1704	526.041	34.58252
-37.164	524.416	34.6509
-37.1582	521.226	34.7192
-37.153	519.914	34.7876
-37.1466	522.048	34.856
-37.1416	518.855	34.9243
-37.1356	515.169	34.9927
-37.1304	517.099	35.061
-37.1239	519.507	35.1294
-37.1177	521.697	35.1978
-37.1115	523.21	35.2661
-37.1068	523.563	35.3345
-37.10062	520.845	35.4028
-37.0956	523.465	35.4712
-37.0901	521.232	35.5396
-37.0832	518.0675	35.60791
-37.07869	518.34	35.67627
-37.0726	517.434	35.7446
-37.0668	516.756	35.813
-37.0623	520.195	35.8813
-37.0557	521.124	35.9497
-37.0501	520.949	36.0181
-37.0443	521.019	36.0864
-37.0385	524.094	36.1548
-37.0321	521.138	36.2231
-37.0264	519.076	36.2915
-37.0197	517.669	36.3599
-37.0151	517.286	36.4282
-37.0114	515.934	36.4966
-37.0043	518.279	36.5649
-36.9996	519.4118	36.6333
-36.9926	520.285	36.70166
-36.9874	520.885	36.77002
-36.9821	525.317	36.8384
-36.9765	522.491	36.9067
-36.9702	519.408	36.9751
-36.9641	519.98	37.0435
-36.9585	515.319	37.1118
-36.953	516.87	37.1802
-36.9481	517.455	37.2485
-36.9424	517.342	37.3169
-36.9356	515.15	37.3853
-36.9308	519.004	37.4536
-36.9249	524.815	37.522
-36.9183	523.134	37.5903
-36.9142	521.7312	37.6587
-36.9077	520.865	37.7271
-36.9015	516.801	37.79541
-36.8965	516.29	37.86377
-36.89098	514.842	37.9321
-36.884	515.773	38.0005
-36.8794	514.325	38.0688
-36.874	518.62	38.1372
-36.8673	523.225	38.2056
-36.8627	520.504	38.2739
-36.8562	520.935	38.3423
-36.8509	521.525	38.4106
-36.8449	517.775	38.479
-36.8393	518.635	38.5474
-36.8333	513.579	38.6157
-36.8286	514.1	38.6841
-36.8214	512.185	38.7524
-36.8154	517.111	38.8208
-36.8114	522.114	38.88916
-36.805	520.03	38.95752
-36.7982	521.878	39.0259
-36.793	520.573	39.0942
-36.7884	520.566	39.1626
-36.7829	518.072	39.231
-36.7765	515.5097	39.2993
-36.77	513.665	39.3677
-36.76511	512.204	39.436
-36.7596	515.89	39.5044
-36.7536	517.284	39.5728
-36.7484	519.004	39.6411
-36.7432	521.531	39.7095
-36.7374	520.408	39.7778
-36.7314	522.501	39.8462
-36.7259	519.2	39.9146
-36.7198	514.983	39.98291
-36.7175	517.027	40.0122

Data Header:			0.254_solid_uprint_typeiv_4545_r0			Time:	55.3328	s	4/13/2019 7:02:08 PM
Data Acquisition:	Timed
Station Name:	ft40.cfg
Test File Name:	Type IV_Monotonic.tst
Displacement	Force	Running Time
mm	N	s
-36.7162	523.994	40.022
-36.712	519.686	40.0806
-36.7068	519.192	40.13916
-36.7018	517.502	40.1978
-36.6968	514.878	40.2563
-36.6925	515.073	40.3149
-36.6866	514.1911	40.3735
-36.6819	513.124	40.4321
-36.677	511.379	40.4907
-36.6719	514.596	40.5493
-36.668	513.049	40.60791
-36.6628	515.767	40.6665
-36.6578	518.837	40.7251
-36.65284	515.567	40.7837
-36.6489	519.165	40.8423
-36.6444	517.4256	40.9009
-36.6374	521.821	40.9595
-36.6319	513.373	41.0181
-36.6291	518.704	41.07666
-36.6231	511.2785	41.1353
-36.6189	515.066	41.1938
-36.61388	511.015	41.2524
-36.6087	512.276	41.311
-36.6049	509.936	41.3696
-36.599	513.336	41.4282
-36.5953	511.516	41.4868
-36.5904	513.101	41.54541
-36.5852	515.768	41.604
-36.5792	516.955	41.6626
-36.5745	518.828	41.7212
-36.5705	519.861	41.7798
-36.5637	519.82	41.8384
-36.5609	518.6	41.897
-36.5557	519.441	41.9556
-36.5502	519.066	42.01416
-36.5458	515.787	42.0728
-36.5407	516.837	42.1313
-36.5355	512.71	42.1899
-36.5311	511.333	42.2485
-36.5266	511.027	42.3071
-36.5207	511.952	42.3657
-36.5166	511.839	42.4243
-36.5117	512.822	42.48291
-36.5068	513.8	42.5415
-36.5019	513.521	42.6001
-36.4958	516.969	42.6587
-36.4907	516.349	42.7173
-36.486	518.806	42.7759
-36.4809	514.347	42.8345
-36.4777	519.104	42.8931
-36.4719	512.574	42.95166
-36.4673	514.88	43.0103
-36.4624	509.627	43.0688
-36.4577	510.436	43.1274
-36.452	507.66	43.186
-36.4474	508.106	43.2446
-36.4424	508.651	43.3032
-36.4379	509.324	43.3618
-36.4323	512.847	43.42041
-36.427	513.3797	43.479
-36.424	515.376	43.5376
-36.4176	516.899	43.5962
-36.414	517.073	43.6548
-36.4083	517.069	43.7134
-36.4034	517.469	43.772
-36.3999	515.981	43.8306
-36.3941	514.448	43.88916
-36.3893	514.008	43.9478
-36.3859	510.5322	44.0063
-36.3804	509.547	44.0649
-36.3744	508.6673	44.1235
-36.3701	508.783	44.1821
-36.3644	508.362	44.2407
-36.3605	509.403	44.2993
-36.3547	511.906	44.35791
-36.3506	509.69	44.4165
-36.345	514.847	44.4751
-36.3407	512.488	44.5337
-36.3354	514.164	44.5923
-36.331	513.8728	44.6509
-36.3258	517.404	44.7095
-36.3208	511.115	44.7681
-36.3151	515.345	44.82666
-36.3119	509.509	44.8853
-36.305	510.8009	44.9438
-36.3018	507.689	45.0024
-36.2957	507.148	45.061
-36.292	505.52	45.1196
-36.2859	505.718	45.1782
-36.2819	509.804	45.2368
-36.2769	507.8689	45.29541
-36.27206	511.556	45.354
-36.266	512.2774	45.4126
-36.26178	512.375	45.4712
-36.2579	513.014	45.5298
-36.252	513.6662	45.5884
-36.2478	512.488	45.647
-36.2434	510.922	45.7056
-36.2376	510.277	45.76416
-36.2336	507.9809	45.8228
-36.2283	505.293	45.8813
-36.2244	501.7467	45.9399
-36.2179	500.728	45.9985
-36.2137	493.5535	46.0571
-36.2055	-39.7782	46.1157
-36.203	-43.5728	46.1743
-36.1986	-44.3861	46.23291
-36.194	-41.663	46.2915
-36.189	-41.7271	46.3501
-36.1838	-39.1453	46.4087
-36.1779	-42.1708	46.4673
-36.1733	-35.5551	46.5259
-36.1689	-42.4426	46.5845
-36.1647	-37.6766	46.6431
-36.1611	-41.3335	46.70166
-36.154	-41.3658	46.7603
-36.1493	-44.37291	46.8188
-36.145	-44.36972	46.8774
-36.14056	-48.6696	46.936
-36.1348	-46.1347	46.9946
-36.13028	-44.3687	47.0532
-36.1249	-45.4105	47.1118
-36.1197	-43.5153	47.17041
-36.1152	-40.0673	47.229
-36.1111	-38.0343	47.2876
-36.1068	-39.0232	47.3462
-36.1004	-36.268	47.4048
-36.0954	-38.1004	47.4634
-36.092	-38.1792	47.522
-36.0865	-38.3912	47.5806
-36.0811	-40.9633	47.63916
-36.0771	-40.91	47.6978
-36.07098	-43.3121	47.7563
-36.0666	-43.1704	47.8149
-36.0621	-46.06575	47.8735
-36.0575	-45.9527	47.9321
-36.0523	-46.86734	47.9907
-36.0484	-46.94202	48.0493
-36.0434	-43.7365	48.10791
-36.0363	-43.9576	48.1665
-36.0323	-41.325	48.2251
-36.029	-41.5229	48.2837
-36.0235	-38.4526	48.3423
-36.0175	-41.8394	48.4009
-36.013	-36.7751	48.4595
-36.0085	-43.4033	48.5181
-36.00333	-41.5832	48.57666
-35.9973	-45.31826	48.6353
-35.9938	-44.8212	48.6938
-35.98967	-46.7228	48.7524
-35.9832	-46.6505	48.811
-35.9793	-45.3685	48.8696
-35.9737	-46.1509	48.9282
-35.9697	-43.6097	48.9868
-35.9641	-42.0017	49.04541
-35.9578	-41.2474	49.104
-35.955	-40.6284	49.1626
-35.9492	-38.8136	49.2212
-35.945	-40.3341	49.2798
-35.9399	-38.3027	49.3384
-35.9354	-35.1207	49.397
-35.9289	-40.311	49.4556
-35.9259	-40.1376	49.51416
-35.9204	-41.5935	49.5728
-35.9157	-41.3248	49.6313
-35.91198	-45.4124	49.6899
-35.9059	-42.2515	49.7485
-35.901	-45.8086	49.8071
-35.8961	-46.458	49.8657
-35.8917	-45.1175	49.9243
-35.8862	-45.45713	49.98291
-35.8798	-41.9525	50.0415
-35.8757	-42.7828	50.1001
-35.8727	-38.3663	50.1587
-35.8669	-42.5273	50.2173
-35.8628	-36.9803	50.2759
-35.8569	-41.144	50.3345
-35.8508	-39.1736	50.3931
-35.847	-43.504	50.45166
-35.8424	-42.9352	50.5103
-35.8371	-46.4041	50.5688
-35.8335	-45.5595	50.6274
-35.82795	-45.1102	50.686
-35.8232	-46.3583	50.7446
-35.8189	-43.54549	50.8032
-35.8124	-42.7658	50.8618
-35.8077	-41.366	50.92041
-35.8021	-41.268	50.979
-35.7978	-39.8714	51.0376
-35.79417	-39.8727	51.0962
-35.7881	-38.3983	51.1548
-35.7842	-38.2366	51.2134
-35.7787	-40.0487	51.272
-35.7742	-37.79435	51.3306
-35.7686	-40.6926	51.38916
-35.7644	-39.8127	51.4478
-35.7592	-43.6924	51.5063
-35.75518	-41.7583	51.5649
-35.7495	-46.189	51.6235
-35.7442	-45.52174	51.6821
-35.7386	-44.9674	51.7407
-35.7342	-46.0481	51.7993
-35.7294	-41.4032	51.85791
-35.7254	-43.1764	51.9165
-35.721	-39.55793	51.9751
-35.7161	-42.7087	52.0337
-35.7122	-37.6018	52.0923
-35.706	-40.9465	52.1509
-35.70105	-38.5034	52.2095
-35.6957	-41.8653	52.2681
-35.6915	-40.0549	52.32666
-35.6856	-44.2285	52.3853
-35.6814	-42.1724	52.4438
-35.6761	-44.3165	52.5024
-35.6706	-45.4575	52.561
-35.6678	-43.2049	52.6196
-35.6624	-45.1361	52.6782
-35.65696	-42.98608	52.7368
-35.6516	-42.1136	52.79541
-35.6475	-40.1854	52.854
-35.6412	-40.4091	52.9126
-35.637	-36.6635	52.9712
-35.6328	-37.1252	53.0298
-35.6279	-38.3271	53.0884
-35.6223	-38.1304	53.147
-35.617	-38.7779	53.2056
-35.6122	-40.1664	53.26416
-35.6073	-42.5169	53.3228
-35.6032	-41.3266	53.3813
-35.5978	-45.4898	53.4399
-35.592	-44.185	53.4985
-35.58831	-46.0102	53.5571
-35.5839	-45.0486	53.6157
-35.5792	-43.5614	53.6743
-35.5732	-44.9621	53.73291
-35.5684	-42.1579	53.7915
-35.5642	-42.2592	53.8501
-35.5588	-37.9618	53.9087
-35.5549	-41.6263	53.9673
-35.5482	-36.8604	54.0259
-35.5438	-41.2543	54.0845
-35.54	-39.16354	54.1431
-35.5355	-41.4121	54.20166
-35.5292	-41.7956	54.2603
-35.525	-44.6025	54.3188
-35.5211	-45.1156	54.3774
-35.5148	-43.9928	54.436
-35.5096	-45.5998	54.4946
-35.5045	-43.5479	54.5532
-35.5025	-43.3567	54.6118
-35.4949	-40.8418	54.67041
-35.4904	-41.26223	54.729
-35.4856	-39.4144	54.7876
-35.4812	-39.9733	54.8462
-35.4759	-38.6791	54.9048
-35.4712	-36.5316	54.9634
-35.4656	-39.4402	55.022
-35.4613	-38.77718	55.0806
-35.4569	-41.9766	55.13916
-35.4515	-40.1874	55.1978
-35.4469	-44.2471	55.2563
-35.4413	-42.3167	55.3149
-35.44022	-41.203	55.3247