File: data/processed_data_files/tensile/0.254_solid_uprint_typeiv_4545_r(3).dat
MTS793|BTW|ENU|1|2|.|/|:|1|0|0|A

Data Header:			0.254_solid_uprint_typeiv_4545_r0			Time:	20.0176	s	4/13/2019 6:50:46 PM
Data Acquisition:	Timed
Station Name:	ft40.cfg
Test File Name:	Type IV_Monotonic.tst
Displacement	Force	Running Time
mm	N	s
-40.046	-48.10844	0.0224609
-40.0458	-46.9857	0.0908203
-40.0414	-44.0147	0.15918
-40.0342	-39.5275	0.227539
-40.0287	-33.9556	0.295898
-40.02459	-28.3202	0.364258
-40.0171	-26.8541	0.432617
-40.0122	-23.311	0.500977
-40.00679	-17.361	0.569336
-40.0018	-14.915	0.637695
-39.9945	-14.3916	0.706055
-39.9901	-10.9166	0.774414
-39.9828	-8.86409	0.842773
-39.9785	-3.78971	0.911133
-39.9725	2.23535	0.979492
-39.9672	5.76528	1.04785
-39.9611	9.760993	1.11621
-39.9546	15.8578	1.18457
-39.9489	21.1791	1.25293
-39.943	19.8214	1.32129
-39.9378	22.7902	1.38965
-39.93243	27.8133	1.45801
-39.92728	26.63925	1.52637
-39.9216	32.56488	1.59473
-39.916	37.4091	1.66309
-39.9093	41.2242	1.73145
-39.9042	43.1188	1.7998
-39.8984	50.4715	1.86816
-39.8928	57.4694	1.93652
-39.8866	58.0854	2.00488
-39.8803	60.8212	2.07324
-39.8747	65.1589	2.1416
-39.8688	64.8614	2.20996
-39.8642	67.17424	2.27832
-39.8578	72.9512	2.34668
-39.8528	78.1555	2.41504
-39.8475	76.9495	2.4834
-39.8409	86.7942	2.55176
-39.8355	93.7694	2.62012
-39.8299	93.9441	2.68848
-39.8244	98.5024	2.75684
-39.8186	100.8912	2.8252
-39.813	102.959	2.89355
-39.80756	104.259	2.96191
-39.80138	105.999	3.03027
-39.7954	109.699	3.09863
-39.7897	112.748	3.16699
-39.7845	121.903	3.23535
-39.7775	126.932	3.30371
-39.7727	131.049	3.37207
-39.7674	132.81	3.44043
-39.7615	137.638	3.50879
-39.7557	138.4505	3.57715
-39.7496	140.29	3.64551
-39.7448	143.381	3.71387
-39.7394	143.446	3.78223
-39.7336	147.396	3.85059
-39.7263	154.147	3.91895
-39.7217	160.901	3.9873
-39.7159	166.0835	4.05566
-39.7104	168.662	4.12402
-39.705	172.372	4.19238
-39.69854	172.388	4.26074
-39.6926	175.181	4.3291
-39.6875	176.353	4.39746
-39.6813	177.217	4.46582
-39.6763	180.268	4.53418
-39.6696	190.455	4.60254
-39.6641	193.732	4.6709
-39.6595	198.023	4.73926
-39.6529	204.737	4.80762
-39.6473	206.001	4.87598
-39.6418	209.406	4.94434
-39.63512	212.6942	5.0127
-39.6299	212.384	5.08105
-39.6251	209.507	5.14941
-39.6193	211.954	5.21777
-39.6139	221.331	5.28613
-39.6077	224.964	5.35449
-39.6013	229.337	5.42285
-39.5961	237.084	5.49121
-39.5915	240.23	5.55957
-39.5847	242.578	5.62793
-39.5796	246.402	5.69629
-39.57457	247.657	5.76465
-39.56839	244.401	5.83301
-39.5622	245.623	5.90137
-39.55751	255.293	5.96973
-39.551	257.401	6.03809
-39.5455	261.396	6.10645
-39.5389	269.9393	6.1748
-39.5337	273.537	6.24316
-39.5282	276.952	6.31152
-39.5239	279.254	6.37988
-39.5176	281.21	6.44824
-39.512	279.156	6.5166
-39.50499	280.435	6.58496
-39.4993	287.247	6.65332
-39.494	290.577	6.72168
-39.48822	293.284	6.79004
-39.4826	299.072	6.8584
-39.4762	304.028	6.92676
-39.4704	308.557	6.99512
-39.4657	312.699	7.06348
-39.4592	312.301	7.13184
-39.4533	311.247	7.2002
-39.4491	314.896	7.26855
-39.4429	318.939	7.33691
-39.4377	319.711	7.40527
-39.4307	324.59	7.47363
-39.4265	329.415	7.54199
-39.421	334.603	7.61035
-39.41444	340.24	7.67871
-39.4098	343.11	7.74707
-39.4039	343.4429	7.81543
-39.3971	342.996	7.88379
-39.3899	346.3598	7.95215
-39.38615	350.442	8.02051
-39.3802	349.989	8.08887
-39.3738	355.447	8.15723
-39.36834	359.1	8.22559
-39.3624	362.916	8.29395
-39.3573	370.205	8.3623
-39.3515	373.335	8.43066
-39.3457	373.814	8.49902
-39.3423	374.174	8.56738
-39.3332	378.84	8.63574
-39.32843	380.765	8.7041
-39.3227	381.121	8.77246
-39.3173	383.849	8.84082
-39.3128	387.777	8.90918
-39.306	389.97	8.97754
-39.3004	397.311	9.0459
-39.2951	402.595	9.11426
-39.2882	402.624	9.18262
-39.2821	401.278	9.25098
-39.2775	407.617	9.31934
-39.2715	411.31	9.3877
-39.2667	409.22	9.45605
-39.2606	414.373	9.52441
-39.2561	415.438	9.59277
-39.25	418.002	9.66113
-39.2438	421.92	9.72949
-39.2379	426.813	9.79785
-39.2318	429.4097	9.86621
-39.2277	431.722	9.93457
-39.2211	437.289	10.00293
-39.2148	440.604	10.0713
-39.2096	438.339	10.1396
-39.2033	438.614	10.208
-39.19685	440.563	10.2764
-39.1923	442.978	10.3447
-39.1871	447.029	10.4131
-39.1811	450.173	10.4814
-39.1759	453.043	10.5498
-39.1687	456.439	10.6182
-39.16267	461.78	10.6865
-39.1571	462.801	10.7549
-39.1522	464.2612	10.8232
-39.1465	463.372	10.8916
-39.1407	465.353	10.96
-39.1352	468.595	11.02832
-39.1295	470.523	11.09668
-39.1235	475.024	11.165
-39.1177	475.88	11.2334
-39.1132	479.25	11.3018
-39.1062	485.305	11.3701
-39.10157	485.665	11.4385
-39.0954	488.228	11.5068
-39.0887	489.219	11.5752
-39.0847	488.642	11.6436
-39.0781	488.636	11.7119
-39.0717	491.515	11.7803
-39.0687	494.137	11.8486
-39.062	493.375	11.917
-39.05624	498.862	11.9854
-39.049	507.691	12.0537
-39.0437	505.191	12.12207
-39.0375	506.918	12.19043
-39.0329	510.764	12.2588
-39.027	509.547	12.3271
-39.0208	509.266	12.3955
-39.01524	511.081	12.4639
-39.009	511.6113	12.5322
-39.0044	509.136	12.6006
-38.9981	514.146	12.6689
-38.9934	522.707	12.7373
-38.9865	523.357	12.8057
-38.9822	523.103	12.874
-38.9759	525.939	12.9424
-38.9698	526.297	13.0107
-38.9647	524.526	13.0791
-38.9594	524.25	13.1475
-38.9536	525.671	13.21582
-38.9474	523.995	13.28418
-38.9424	524.6969	13.3525
-38.93539	535.196	13.4209
-38.9297	536.373	13.4893
-38.925	536.717	13.5576
-38.9186	539.968	13.626
-38.9122	538.133	13.6943
-38.9069	537.812	13.7627
-38.9014	537.567	13.8311
-38.8957	537.114	13.8994
-38.89	535.128	13.9678
-38.8852	537.5061	14.0361
-38.8793	542.4505	14.1045
-38.8729	543.718	14.1729
-38.86837	546.2356	14.2412
-38.8619	549.093	14.30957
-38.8553	546.641	14.37793
-38.8503	547.926	14.4463
-38.8445	545.767	14.5146
-38.8395	543.594	14.583
-38.8335	541.24	14.6514
-38.8275	543.125	14.7197
-38.8222	546.528	14.7881
-38.8165	548.045	14.8564
-38.8108	550.127	14.9248
-38.8052	552.761	14.9932
-38.7997	550.9834	15.0615
-38.79427	554.4115	15.1299
-38.788	553.093	15.1982
-38.7823	550.556	15.2666
-38.77673	543.749	15.335
-38.7704	546.106	15.40332
-38.7641	548.286	15.47168
-38.75946	548.682	15.54
-38.7537	550.257	15.6084
-38.7477	553.514	15.6768
-38.7425	553.362	15.7451
-38.7364	554.234	15.8135
-38.7303	554.014	15.8818
-38.7253	550.927	15.9502
-38.71899	544.775	16.0186
-38.7134	546.172	16.0869
-38.7086	548.462	16.1553
-38.7024	546.86	16.2236
-38.6969	546.1701	16.292
-38.6915	551.676	16.3604
-38.6847	550.634	16.4287
-38.6792	553.428	16.49707
-38.67432	553.61	16.56543
-38.6675	549.2533	16.6338
-38.6628	545.045	16.7021
-38.6565	544.823	16.7705
-38.6503	544.978	16.8389
-38.6452	544.096	16.9072
-38.6388	543.945	16.9756
-38.63353	547.232	17.0439
-38.62912	547.878	17.1123
-38.6222	549.999	17.1807
-38.6175	550.287	17.249
-38.611	550.117	17.3174
-38.6052	544.567	17.3857
-38.5988	542.672	17.4541
-38.593	543.277	17.5225
-38.58873	542.097	17.59082
-38.5823	542.513	17.65918
-38.5762	544.664	17.7275
-38.5711	544.736	17.7959
-38.5662	547.676	17.8643
-38.5606	547.53	17.9326
-38.5543	545.618	18.001
-38.5504	543.678	18.0693
-38.5436	543.458	18.1377
-38.5375	543.392	18.2061
-38.531	539.321	18.2744
-38.5269	539.524	18.3428
-38.52047	541.3974	18.4111
-38.5145	541.379	18.4795
-38.5097	545.339	18.5479
-38.5035	546.656	18.6162
-38.4969	544.176	18.68457
-38.4924	541.65	18.75293
-38.486	545.076	18.8213
-38.48	541.376	18.8896
-38.4747	539.545	18.958
-38.4687	540.286	19.0264
-38.4644	537.436	19.0947
-38.4575	538.293	19.1631
-38.451	541.011	19.2314
-38.4461	542.748	19.2998
-38.4411	542.63	19.3682
-38.4358	540.496	19.4365
-38.4284	543.308	19.5049
-38.4233	542.313	19.5732
-38.4167	537.645	19.6416
-38.4119	537.552	19.71
-38.4058	538.305	19.77832
-38.4005	536.195	19.84668
-38.39481	539.031	19.915
-38.38858	542.067	19.9834
-38.3877	537.647	20.0127

Data Header:			0.254_solid_uprint_typeiv_4545_r0			Time:	39.9407	s	4/13/2019 6:51:06 PM
Data Acquisition:	Timed
Station Name:	ft40.cfg
Test File Name:	Type IV_Monotonic.tst
Displacement	Force	Running Time
mm	N	s
-38.3856	537.244	20.0225
-38.3795	536.618	20.09082
-38.3751	536.23	20.15918
-38.3694	538.854	20.2275
-38.3621	538.88	20.2959
-38.3574	540.37	20.3643
-38.3508	543.865	20.4326
-38.34544	541.444	20.501
-38.341	536.068	20.5693
-38.3348	537.021	20.6377
-38.32795	536.918	20.7061
-38.3231	535.9	20.7744
-38.3174	534.366	20.8428
-38.3116	535.341	20.9111
-38.3051	535.475	20.9795
-38.3009	538.976	21.0479
-38.2938	540.3194	21.1162
-38.2888	541.66	21.18457
-38.2823	535.6593	21.25293
-38.2782	535.2691	21.3213
-38.2709	537.242	21.3896
-38.2654	532.8902	21.458
-38.26067	532.228	21.5264
-38.2548	534.795	21.5947
-38.2496	533.45	21.6631
-38.2438	534.333	21.7314
-38.2377	539.046	21.7998
-38.2318	536.964	21.8682
-38.2274	535.833	21.9365
-38.2198	536.985	22.0049
-38.215	538.405	22.0732
-38.2101	534.292	22.1416
-38.2036	532.285	22.21
-38.1976	530.701	22.27832
-38.1914	530.838	22.34668
-38.18594	532.911	22.415
-38.1802	535.338	22.4834
-38.1752	537.211	22.5518
-38.17	535.8869	22.6201
-38.16367	536.176	22.6885
-38.15794	537.873	22.7568
-38.1524	534.3656	22.8252
-38.1467	533.619	22.8936
-38.1398	531.693	22.9619
-38.1342	529.781	23.0303
-38.128	532.7868	23.0986
-38.1226	533.855	23.167
-38.1185	534.4201	23.2354
-38.1115	532.691	23.3037
-38.1068	535.789	23.37207
-38.1011	536.7934	23.44043
-38.0939	534.276	23.5088
-38.0895	533.999	23.5771
-38.0828	531.778	23.6455
-38.0775	529.295	23.7139
-38.0714	530.313	23.7822
-38.0666	531.703	23.8506
-38.0606	532.352	23.9189
-38.0552	532.548	23.9873
-38.0496	534.881	24.0557
-38.0439	538.31	24.124
-38.03764	535.531	24.1924
-38.03334	533.472	24.2607
-38.0274	531.236	24.3291
-38.0204	529.062	24.3975
-38.01543	529.605	24.46582
-38.0095	531.045	24.53418
-38.0033	530.641	24.6025
-38	529.159	24.6709
-37.992	531.129	24.7393
-37.9872	535.56	24.8076
-37.981	535.26	24.876
-37.9756	531.9408	24.9443
-37.9698	533.3595	25.0127
-37.96426	528.915	25.0811
-37.9588	528.446	25.1494
-37.9533	527.594	25.2178
-37.9473	528.1499	25.2861
-37.9421	526.847	25.3545
-37.93499	529.04	25.4229
-37.9307	533.792	25.4912
-37.9236	537.251	25.55957
-37.9187	531.8338	25.62793
-37.9118	532.678	25.6963
-37.907	529.468	25.7646
-37.9011	530.151	25.833
-37.8963	528.18	25.9014
-37.8907	525.266	25.9697
-37.8841	525.83	26.0381
-37.8792	528.099	26.1064
-37.8722	531.7	26.1748
-37.8666	532.551	26.2432
-37.8613	533.391	26.3115
-37.8564	533.895	26.3799
-37.8498	528.379	26.4482
-37.8444	528.074	26.5166
-37.8389	527.188	26.585
-37.8332	525.124	26.65332
-37.8276	523.28	26.72168
-37.8221	526.367	26.79
-37.8165	531.681	26.8584
-37.8107	531.175	26.9268
-37.805	532.1839	26.9951
-37.8001	534.4	27.0635
-37.79377	530.46	27.1318
-37.7875	531.3147	27.2002
-37.7819	529.779	27.2686
-37.77615	526.299	27.3369
-37.7702	521.62	27.4053
-37.76469	523.107	27.4736
-37.7589	529.861	27.542
-37.7529	527.279	27.6104
-37.7478	529.5528	27.6787
-37.7416	534.3028	27.74707
-37.7361	530.13	27.81543
-37.7306	529.669	27.8838
-37.7238	529.074	27.9521
-37.7197	527.043	28.0205
-37.7139	520.873	28.0889
-37.7077	521.009	28.1572
-37.702	526.749	28.2256
-37.6965	526.718	28.2939
-37.6903	527.305	28.3623
-37.6852	531.167	28.4307
-37.6792	531.512	28.499
-37.6729	530.492	28.5674
-37.6682	528.867	28.6357
-37.6629	526.115	28.7041
-37.6576	522.932	28.7725
-37.6509	521.535	28.84082
-37.6459	526.238	28.90918
-37.6397	526.2135	28.9775
-37.6332	525.825	29.0459
-37.6282	530.538	29.1143
-37.6217	528.991	29.1826
-37.6157	530.993	29.251
-37.6104	529.487	29.3193
-37.6055	527.813	29.3877
-37.5991	522.73	29.4561
-37.5935	522.301	29.5244
-37.5876	524.914	29.5928
-37.5825	524.909	29.6611
-37.5758	525.8847	29.7295
-37.5718	527.947	29.7979
-37.5661	527.54	29.8662
-37.5596	529.208	29.93457
-37.55497	531.287	30.00293
-37.5482	527.7738	30.0713
-37.5431	521.789	30.1396
-37.5368	521.674	30.208
-37.5308	523.238	30.2764
-37.5265	521.865	30.3447
-37.5196	523.504	30.4131
-37.5133	526.314	30.4814
-37.5082	526.794	30.5498
-37.503	529.041	30.6182
-37.4977	531.204	30.6865
-37.49028	530.271	30.7549
-37.4858	523.442	30.8232
-37.4799	522.018	30.8916
-37.4741	524.619	30.96
-37.4688	521.346	31.02832
-37.46244	520.063	31.09668
-37.4578	523.6994	31.165
-37.4523	525.315	31.2334
-37.4463	528.08	31.3018
-37.441	530.555	31.3701
-37.4341	530.663	31.4385
-37.4283	522.559	31.5068
-37.4235	520.477	31.5752
-37.417	523.697	31.6436
-37.4124	522.222	31.7119
-37.4066	520.848	31.7803
-37.3986	522.89	31.8486
-37.3952	523.35	31.917
-37.3895	525.72	31.9854
-37.3834	527.164	32.0537
-37.378	528.8219	32.12207
-37.3714	525.001	32.19043
-37.3663	523.154	32.2588
-37.36047	524.486	32.3271
-37.356	523.126	32.3955
-37.3486	520.102	32.4639
-37.3448	519.967	32.5322
-37.3369	520.992	32.6006
-37.3312	525.3974	32.6689
-37.3271	527.016	32.7373
-37.3203	525.638	32.8057
-37.3156	524.881	32.874
-37.30949	524.877	32.9424
-37.3034	525.219	33.0107
-37.2981	521.846	33.0791
-37.2914	519.207	33.1475
-37.2872	520.927	33.21582
-37.28	519.655	33.28418
-37.274	522.846	33.3525
-37.26939	525.02	33.4209
-37.2632	526.092	33.4893
-37.258	525.71	33.5576
-37.2515	524.097	33.626
-37.2458	528.748	33.6943
-37.2393	523.878	33.7627
-37.236	519.893	33.8311
-37.2308	521.58	33.8994
-37.2227	518.642	33.9678
-37.217	519.204	34.0361
-37.212	523.3797	34.1045
-37.2067	525.497	34.1729
-37.2004	523.068	34.2412
-37.1951	523.39	34.30957
-37.1893	525.021	34.37793
-37.1834	523.513	34.4463
-37.1781	520.466	34.5146
-37.1724	520.004	34.583
-37.1657	518.973	34.6514
-37.1614	519.904	34.7197
-37.1552	521.102	34.7881
-37.1512	521.514	34.8564
-37.1436	522.5882	34.9248
-37.1384	523	34.9932
-37.1333	525.142	35.0615
-37.127	525.806	35.1299
-37.1213	520.804	35.1982
-37.1157	520.711	35.2666
-37.1097	517.709	35.335
-37.10368	518.324	35.40332
-37.0984	518.244	35.47168
-37.0937	520.457	35.54
-37.0864	518.704	35.6084
-37.0813	520.144	35.6768
-37.0755	523.058	35.7451
-37.0691	525.158	35.8135
-37.0634	522.252	35.8818
-37.059	520.903	35.9502
-37.0529	518.048	36.0186
-37.0477	517.828	36.0869
-37.0416	518.17	36.1553
-37.03508	518.874	36.2236
-37.0307	517.15	36.292
-37.0243	518.255	36.3604
-37.0193	522.978	36.4287
-37.0123	524.2821	36.49707
-37.0076	520.843	36.56543
-37.0015	520.976	36.6338
-36.9964	519.639	36.7021
-36.9907	517.843	36.7705
-36.9845	517.078	36.8389
-36.9789	517.443	36.9072
-36.9722	515.0849	36.9756
-36.96616	515.859	37.0439
-36.962	521.635	37.1123
-36.9542	522.788	37.1807
-36.9498	521.241	37.249
-36.94421	521.848	37.3174
-36.9383	520.487	37.3857
-36.9342	516.998	37.4541
-36.9271	515.186	37.5225
-36.9206	516.237	37.59082
-36.9166	513.707	37.65918
-36.9115	513.3576	37.7275
-36.90527	518.066	37.7959
-36.8988	520.6925	37.8643
-36.8934	519.664	37.9326
-36.88834	520.4729	38.001
-36.8821	520.1814	38.0693
-36.8764	516.0777	38.1377
-36.8704	514.043	38.2061
-36.8647	515.206	38.2744
-36.8597	510.877	38.3428
-36.8542	509.513	38.4111
-36.8482	514.116	38.4795
-36.8418	517.239	38.5479
-36.8364	517.5	38.6162
-36.8305	518.466	38.68457
-36.8248	518.914	38.75293
-36.818	516.498	38.8213
-36.8127	512.7002	38.8896
-36.8076	511.747	38.958
-36.8009	508.18	39.0264
-36.797	505.536	39.0947
-36.791	508.468	39.1631
-36.78487	509.551	39.2314
-36.7791	507.9913	39.2998
-36.7735	507.743	39.3682
-36.7673	-41.2399	39.4365
-36.7612	-37.6552	39.5049
-36.7553	-38.6663	39.5732
-36.7502	-40.0342	39.6416
-36.74332	-44.7218	39.71
-36.7393	-46.5947	39.77832
-36.7329	-43.0171	39.84668
-36.7275	-42.2715	39.915
-36.7277	-36.6407	39.9248