File: data/processed_data_files/tensile/0.254_solid_uprint_typeiv_090_r(1).dat
MTS793|BTW|ENU|1|2|.|/|:|1|0|0|A

Data Header:			0.254_solid_uprint_typeiv_090_r0			Time:	20.0183	s	4/14/2019 1:00:12 AM
Data Acquisition:	Timed
Station Name:	ft40.cfg
Test File Name:	monotonic_0.2540_typeiv_solid_090_uprint.tst
Displacement	Force	Running Time
mm	N	s
-40.0402	-223.298	0.0229492
-40.0391	-223.719	0.0913086
-40.0327	-212.47	0.159668
-40.0276	-208.678	0.228027
-40.0216	-206.922	0.296387
-40.0155	-201.288	0.364746
-40.0107	-199.732	0.433105
-40.0056	-196.961	0.501465
-39.99947	-193.274	0.569824
-39.9938	-192.967	0.638184
-39.9873	-193.43	0.706543
-39.9815	-189.834	0.774902
-39.9762	-180.421	0.843262
-39.9702	-177.204	0.911621
-39.9651	-172.231	0.97998
-39.9589	-165.617	1.04834
-39.9547	-164.8792	1.1167
-39.9478	-161.504	1.18506
-39.9412	-158.209	1.253418
-39.9364	-157.621	1.32178
-39.9306	-158.5361	1.39014
-39.9254	-154.837	1.4585
-39.9195	-145.685	1.52686
-39.9128	-143.519	1.59521
-39.9089	-137.094	1.66357
-39.9023	-132.0562	1.73193
-39.8963	-127.124	1.800293
-39.8905	-123.928	1.86865
-39.885	-123.4881	1.93701
-39.8796	-122.242	2.00537
-39.8728	-122.294	2.07373
-39.8685	-119.742	2.14209
-39.8625	-113.265	2.21045
-39.8569	-111.508	2.27881
-39.851	-104.969	2.347168
-39.8459	-100.494	2.41553
-39.8394	-94.1687	2.48389
-39.8336	-88.8934	2.55225
-39.8279	-87.6141	2.62061
-39.8229	-87.40081	2.68896
-39.8164	-86.5024	2.75732
-39.811	-83.0086	2.82568
-39.8048	-79.0218	2.894043
-39.8005	-75.43869	2.9624
-39.7934	-69.4194	3.03076
-39.7878	-65.8504	3.09912
-39.78252	-59.5098	3.16748
-39.77734	-54.6228	3.23584
-39.7705	-52.4406	3.3042
-39.7654	-52.3779	3.37256
-39.75959	-51.6294	3.440918
-39.75304	-47.1302	3.50928
-39.7491	-46.1293	3.57764
-39.7427	-42.6133	3.646
-39.7364	-36.5783	3.71436
-39.7315	-34.0461	3.78271
-39.7259	-26.57127	3.85107
-39.72	-18.971	3.91943
-39.7145	-18.1132	3.987793
-39.7078	-18.6904	4.05615
-39.7029	-14.2956	4.12451
-39.6977	-9.85112	4.19287
-39.6906	-10.5864	4.26123
-39.686	-8.762392	4.32959
-39.681	-3.39947	4.39795
-39.676	-1.48147	4.46631
-39.6682	6.22972	4.534668
-39.66272	13.4779	4.60303
-39.6568	15.2484	4.67139
-39.6514	14.967	4.73975
-39.6452	20.17421	4.80811
-39.6412	26.5666	4.87646
-39.6346	24.1603	4.94482
-39.6293	26.8981	5.01318
-39.62302	31.5679	5.081543
-39.6167	33.9343	5.1499
-39.6119	38.811	5.21826
-39.6058	45.83511	5.28662
-39.6002	47.6613	5.35498
-39.5956	49.2152	5.42334
-39.5894	55.9713	5.4917
-39.5842	60.6042	5.56006
-39.5769	59.4793	5.628418
-39.5731	60.7326	5.69678
-39.566	64.9603	5.76514
-39.5609	66.90963	5.8335
-39.55463	72.595	5.90186
-39.5485	77.84227	5.97021
-39.5437	82.1894	6.03857
-39.5383	82.7094	6.10693
-39.5327	91.0335	6.175293
-39.5258	95.3916	6.24365
-39.5207	95.0261	6.31201
-39.5146	97.849	6.38037
-39.5087	99.9512	6.44873
-39.5039	102.7223	6.51709
-39.4984	105.928	6.58545
-39.4931	110.972	6.65381
-39.4874	115.276	6.722168
-39.481	115.018	6.79053
-39.4759	125.099	6.85889
-39.4686	129.117	6.92725
-39.4634	129.575	6.99561
-39.4576	133.182	7.06396
-39.4517	136.174	7.13232
-39.44743	136.4586	7.20068
-39.4421	137.715	7.269043
-39.436	142.394	7.3374
-39.4293	144.621	7.40576
-39.4245	150.031	7.47412
-39.4186	158.758	7.54248
-39.4124	161.463	7.61084
-39.40704	164.9063	7.6792
-39.4012	166.5096	7.74756
-39.3958	169.1	7.815918
-39.3894	169.746	7.88428
-39.384	171.794	7.95264
-39.377	172.763	8.021
-39.373	175.982	8.08936
-39.3661	180.525	8.15771
-39.3614	189.263	8.22607
-39.3562	193.469	8.29443
-39.3505	196.838	8.362793
-39.3438	201.211	8.43115
-39.33926	200.406	8.49951
-39.3327	202.6279	8.56787
-39.32777	204.2195	8.63623
-39.3231	205.144	8.70459
-39.3156	208.35	8.77295
-39.3106	213.269	8.84131
-39.3042	219.18	8.909668
-39.2995	224.468	8.97803
-39.29314	229.529	9.04639
-39.2882	232.475	9.11475
-39.2808	233.847	9.18311
-39.275	235.959	9.25146
-39.2707	239.311	9.31982
-39.2653	236.301	9.38818
-39.2571	238.372	9.456543
-39.252	244.197	9.5249
-39.2475	248.74	9.59326
-39.242	253.438	9.66162
-39.2351	260.07	9.72998
-39.2299	263.884	9.79834
-39.2239	267.407	9.8667
-39.2197	272.033	9.93506
-39.2126	271.21	10.0034
-39.2072	267.796	10.0718
-39.20097	270.671	10.1401
-39.1959	276.215	10.2085
-39.1909	278.958	10.2769
-39.1847	284.242	10.3452
-39.1785	290.108	10.4136
-39.1737	293.462	10.4819
-39.1675	297.8111	10.5503
-39.1619	301.839	10.6187
-39.1565	303.422	10.687
-39.1515	298.169	10.7554
-39.1451	300.251	10.82373
-39.1393	308.8	10.89209
-39.1323	306.793	10.9604
-39.12738	310.326	11.0288
-39.12162	319.712	11.0972
-39.1161	320.913	11.1655
-39.1104	324.349	11.2339
-39.1048	329.8031	11.3022
-39.10004	332.1254	11.3706
-39.09338	328.498	11.439
-39.0875	330.213	11.5073
-39.0814	337.391	11.5757
-39.077	336.197	11.644
-39.0709	338.079	11.7124
-39.0653	344.308	11.7808
-39.0593	349.086	11.8491
-39.0539	352.729	11.91748
-39.047	356.966	11.98584
-39.0419	359.161	12.0542
-39.03735	356.728	12.1226
-39.0304	358.052	12.1909
-39.0252	363.872	12.2593
-39.019	362.621	12.3276
-39.0144	364.609	12.396
-39.00935	369.355	12.4644
-39.0021	372.59	12.5327
-38.9962	377.278	12.6011
-38.9908	384.2	12.6694
-38.9855	385.563	12.7378
-38.9802	384.473	12.8062
-38.9742	386.0506	12.8745
-38.9688	389.52	12.9429
-38.9631	387.781	13.01123
-38.9586	388.881	13.07959
-38.9515	393.383	13.1479
-38.9455	396.632	13.2163
-38.9402	400.193	13.2847
-38.9336	404.076	13.353
-38.9279	406.7	13.4214
-38.9221	406.196	13.4897
-38.9172	412.14	13.5581
-38.9112	411.837	13.6265
-38.9057	411.699	13.6948
-38.8996	412.771	13.7632
-38.8948	415.972	13.8315
-38.8883	418.569	13.8999
-38.8827	420.321	13.9683
-38.8775	424.284	14.0366
-38.8708	425.2872	14.10498
-38.8653	426.463	14.17334
-38.8597	432.268	14.2417
-38.8537	433.92	14.3101
-38.8495	431.451	14.3784
-38.8427	432.889	14.4468
-38.8374	432.388	14.5151
-38.8318	435.877	14.5835
-38.8252	435.591	14.6519
-38.8204	439.356	14.7202
-38.8137	440.718	14.7886
-38.8087	444.037	14.8569
-38.8023	447.702	14.9253
-38.7967	446.648	14.9937
-38.7917	447.991	15.062
-38.7865	446.631	15.1304
-38.7802	445.168	15.19873
-38.7752	447.06	15.26709
-38.7685	447.947	15.3354
-38.7633	448.3	15.4038
-38.7575	448.482	15.4722
-38.7522	453.464	15.5405
-38.7467	457.078	15.6089
-38.7399	456.1441	15.6772
-38.7354	457.03	15.7456
-38.7293	455.745	15.814
-38.7234	452.445	15.8823
-38.7173	453.267	15.9507
-38.7126	453.957	16.019
-38.707	451.205	16.0874
-38.7004	450.734	16.1558
-38.69577	457.777	16.2241
-38.6894	461.86	16.29248
-38.6839	459.264	16.36084
-38.6775	462.1	16.4292
-38.6732	459.646	16.4976
-38.667	456.859	16.5659
-38.6607	456.792	16.6343
-38.6557	456.874	16.7026
-38.6494	453.39	16.771
-38.6444	451.124	16.8394
-38.6378	456.346	16.9077
-38.632	459.206	16.9761
-38.6265	458.12	17.0444
-38.6205	460.616	17.1128
-38.6148	460.738	17.1812
-38.6093	457.964	17.2495
-38.6039	457.986	17.3179
-38.5977	457.58	17.38623
-38.5933	451.146	17.45459
-38.5864	449.114	17.5229
-38.5811	455.105	17.5913
-38.5752	455.657	17.6597
-38.5709	455.379	17.728
-38.5628	458.151	17.7964
-38.5588	457.744	17.8647
-38.5521	458.358	17.9331
-38.54768	455.858	18.0015
-38.5412	453.83	18.0698
-38.5354	447.21	18.1382
-38.5294	445.8851	18.2065
-38.5242	452.078	18.2749
-38.5169	451.682	18.3433
-38.5134	449.62	18.4116
-38.5076	453.938	18.47998
-38.5008	454.556	18.54834
-38.4958	453.263	18.6167
-38.4895	452.856	18.6851
-38.4835	450.0141	18.7534
-38.4786	445.372	18.8218
-38.4733	442.336	18.8901
-38.4669	445.926	18.9585
-38.4625	445.151	19.0269
-38.4552	446.318	19.0952
-38.45	450.281	19.1636
-38.4438	450.137	19.2319
-38.4393	451.978	19.3003
-38.4329	450.593	19.3687
-38.4265	447.695	19.437
-38.4204	442.652	19.5054
-38.4166	440.735	19.57373
-38.4102	443.205	19.64209
-38.4052	442.692	19.7104
-38.3984	441.381	19.7788
-38.3929	446.278	19.8472
-38.3872	446.686	19.9155
-38.382	448.175	19.9839
-38.3786	443.863	20.0132

Data Header:			0.254_solid_uprint_typeiv_090_r0			Time:	34.844	s	4/14/2019 1:00:26 AM
Data Acquisition:	Timed
Station Name:	ft40.cfg
Test File Name:	monotonic_0.2540_typeiv_solid_090_uprint.tst
Displacement	Force	Running Time
mm	N	s
-38.3784	438.808	20.0229
-38.3745	440.144	20.0815
-38.3682	439.578	20.1401
-38.3642	440.826	20.19873
-38.35878	441.081	20.2573
-38.3543	445.717	20.3159
-38.3503	445.274	20.3745
-38.3447	445.59	20.4331
-38.3397	449.427	20.4917
-38.3344	446.877	20.5503
-38.3293	446.278	20.6089
-38.3247	446.609	20.66748
-38.3192	442.15	20.7261
-38.3154	442.245	20.7847
-38.3098	438.942	20.8433
-38.305	439.696	20.9019
-38.3004	437.669	20.9604
-38.2955	440.248	21.019
-38.2892	438.505	21.0776
-38.2851	439.838	21.13623
-38.2809	438.722	21.1948
-38.2756	441.099	21.2534
-38.2717	441.553	21.312
-38.26527	441.1582	21.3706
-38.2614	445.88	21.4292
-38.2567	443.248	21.4878
-38.2506	445.588	21.5464
-38.2459	439.958	21.60498
-38.24229	441.791	21.6636
-38.236	435.293	21.7222
-38.2326	438.217	21.7808
-38.2272	434.927	21.8394
-38.2216	436.32	21.8979
-38.2171	434.7399	21.9565
-38.2121	437.672	22.0151
-38.2082	436.258	22.07373
-38.20285	438.372	22.1323
-38.1984	441.394	22.1909
-38.1926	441.068	22.2495
-38.1882	443.1575	22.3081
-38.1835	445.009	22.3667
-38.1788	442.965	22.4253
-38.1728	443.192	22.4839
-38.1684	442.088	22.54248
-38.1636	441.252	22.6011
-38.1593	439.447	22.6597
-38.1538	440.571	22.7183
-38.1491	435.141	22.7769
-38.1442	436.504	22.8354
-38.14	435.774	22.894
-38.1342	436.906	22.9526
-38.1287	435.707	23.01123
-38.1241	438.117	23.0698
-38.1199	438.692	23.1284
-38.1145	438.513	23.187
-38.1099	441.272	23.2456
-38.1049	439.343	23.3042
-38.1008	442.845	23.3628
-38.09404	438.945	23.4214
-38.0891	441.158	23.47998
-38.0847	434.784	23.5386
-38.0803	438.34	23.5972
-38.0764	436.134	23.6558
-38.0702	433.0267	23.7144
-38.0657	433.67	23.7729
-38.0617	434.703	23.8315
-38.0556	435.199	23.8901
-38.0514	435.01	23.94873
-38.0462	438.056	24.0073
-38.0414	438.837	24.0659
-38.0366	440.2153	24.1245
-38.0324	442.17	24.1831
-38.0267	443.087	24.2417
-38.0204	443.1387	24.3003
-38.0177	442.449	24.3589
-38.0116	441.445	24.41748
-38.0075	438.175	24.4761
-38.0037	438.774	24.5347
-37.9968	436.325	24.5933
-37.9935	435.633	24.6519
-37.9881	434.416	24.7104
-37.9833	436.016	24.769
-37.9779	432.968	24.8276
-37.9726	435.025	24.88623
-37.9673	436.183	24.9448
-37.964	435.638	25.0034
-37.9585	439.93	25.062
-37.953	437.996	25.1206
-37.9491	441.171	25.1792
-37.9446	438.241	25.2378
-37.9393	441.071	25.2964
-37.935	436.476	25.35498
-37.9297	437.684	25.4136
-37.9242	435.336	25.4722
-37.919	435.096	25.5308
-37.9138	432.401	25.5894
-37.9099	433.559	25.6479
-37.905	434.688	25.7065
-37.9006	430.796	25.7651
-37.89465	436.37	25.82373
-37.8901	436.974	25.8823
-37.8852	435.977	25.9409
-37.8797	438.198	25.9995
-37.8756	440.934	26.0581
-37.8706	441.258	26.1167
-37.8656	440.669	26.1753
-37.8609	441.432	26.2339
-37.8561	436.221	26.29248
-37.8508	439.191	26.3511
-37.8467	435.331	26.4097
-37.841	436.68	26.4683
-37.8374	431.79	26.5269
-37.8321	434.255	26.5854
-37.8261	432.023	26.644
-37.823	430.497	26.7026
-37.8178	433.566	26.76123
-37.8121	431.767	26.8198
-37.8072	435.501	26.8784
-37.8029	435.621	26.937
-37.7974	440.369	26.9956
-37.7933	434.896	27.0542
-37.7872	440.781	27.1128
-37.7827	434.557	27.1714
-37.7773	436.378	27.22998
-37.7728	434.595	27.2886
-37.7683	435.606	27.3472
-37.7637	433.3992	27.4058
-37.7585	431.45	27.4644
-37.7534	432.719	27.5229
-37.7492	432.54	27.5815
-37.7442	432.614	27.6401
-37.738	435.228	27.69873
-37.7343	435.938	27.7573
-37.7287	435.388	27.8159
-37.7243	439.167	27.8745
-37.7189	438.997	27.9331
-37.7147	437.753	27.9917
-37.7101	440.2265	28.0503
-37.7043	437.656	28.1089
-37.6996	438.475	28.16748
-37.6945	435.93	28.2261
-37.6902	436.841	28.2847
-37.685	431.129	28.3433
-37.6798	431.68	28.4019
-37.6757	432.396	28.4604
-37.6697	427.913	28.519
-37.6657	431.678	28.5776
-37.6603	430.014	28.63623
-37.656	434.374	28.6948
-37.6512	430.719	28.7534
-37.64653	437.564	28.812
-37.642	432.635	28.8706
-37.6354	438.34	28.9292
-37.63168	435.584	28.9878
-37.6259	437.812	29.0464
-37.6223	434.402	29.10498
-37.6175	434.928	29.1636
-37.6123	434.641	29.2222
-37.6069	432.029	29.2808
-37.6022	432.517	29.3394
-37.5977	432.36	29.3979
-37.5913	430.899	29.4565
-37.5881	431.491	29.5151
-37.583	432.932	29.57373
-37.5778	433.157	29.6323
-37.5722	434.7283	29.6909
-37.5682	437.974	29.7495
-37.5636	434.0448	29.8081
-37.5582	438.889	29.8667
-37.5533	436.632	29.9253
-37.5481	438.0593	29.9839
-37.5433	434.154	30.04248
-37.5388	436.4241	30.1011
-37.5332	432.991	30.1597
-37.5291	429.653	30.2183
-37.5236	430.445	30.2769
-37.5177	429.985	30.3354
-37.5138	430.335	30.394
-37.5092	428.514	30.4526
-37.5045	431.967	30.51123
-37.5	427.569	30.5698
-37.4939	436.479	30.6284
-37.4894	432.07	30.687
-37.485	434.639	30.7456
-37.4794	434.164	30.8042
-37.4755	436.91	30.8628
-37.47049	434.472	30.9214
-37.4651	434.498	30.97998
-37.46106	434.705	31.0386
-37.4554	431.815	31.0972
-37.4511	430.194	31.1558
-37.446	428.88	31.2144
-37.4406	429.386	31.2729
-37.4363	426.19	31.3315
-37.4307	428.852	31.3901
-37.4258	430.108	31.44873
-37.4213	428.222	31.5073
-37.417	432.231	31.5659
-37.4113	431.156	31.6245
-37.407	433.255	31.6831
-37.40089	430.744	31.7417
-37.3969	435.326	31.8003
-37.3929	431.613	31.8589
-37.3875	429.962	31.91748
-37.3816	430.428	31.9761
-37.3766	425.677	32.0347
-37.3726	425.952	32.0933
-37.3677	422.158	32.1519
-37.36216	420.129	32.2104
-37.354	-57.7668	32.269
-37.3523	-42.58326	32.3276
-37.3474	-44.2676	32.38623
-37.3433	-41.284	32.4448
-37.3385	-41.1079	32.5034
-37.3323	-39.4125	32.562
-37.3281	-40.8527	32.6206
-37.3236	-37.6836	32.6792
-37.3177	-36.6286	32.7378
-37.3142	-37.4927	32.7964
-37.3081	-35.6374	32.85498
-37.3041	-36.8477	32.9136
-37.299	-40.5924	32.9722
-37.2947	-41.0783	33.0308
-37.29023	-42.1581	33.0894
-37.2847	-44.08091	33.1479
-37.27953	-42.3789	33.2065
-37.2741	-41.0085	33.2651
-37.2711	-43.0192	33.32373
-37.26556	-41.6476	33.3823
-37.2594	-39.9397	33.4409
-37.2545	-37.8926	33.4995
-37.2501	-39.6087	33.5581
-37.2466	-35.4338	33.6167
-37.2403	-38.2488	33.6753
-37.2362	-38.8541	33.7339
-37.2303	-38.2383	33.79248
-37.2252	-41.5387	33.8511
-37.2221	-40.52396	33.9097
-37.2157	-44.4434	33.9683
-37.2115	-43.4378	34.0269
-37.2068	-48.0485	34.0854
-37.2018	-44.1637	34.144
-37.1965	-47.5891	34.2026
-37.1913	-41.5575	34.26123
-37.1869	-44.6381	34.3198
-37.1823	-39.4696	34.3784
-37.1774	-40.2993	34.437
-37.1716	-39.1988	34.4956
-37.1683	-35.6032	34.5542
-37.1633	-36.7195	34.6128
-37.1583	-36.5402	34.6714
-37.15197	-37.1482	34.72998
-37.1478	-38.10561	34.7886
-37.1442	-41.84597	34.8374