File: data/processed_data_files/tensile/0.254_hd_uprint_typeiv_4545_r(5).dat
MTS793|BTW|ENU|1|2|.|/|:|1|0|0|A

Data Header:			0.254_hd_uprint_typeiv_4545_r0			Time:	20.0176	s	4/13/2019 7:22:03 PM
Data Acquisition:	Timed
Station Name:	ft40.cfg
Test File Name:	monotonic_0.2540_typeiv_hd_4545_uprint.tst
Displacement	Force	Running Time
mm	N	s
-40.03418	-207.448	0.0227051
-40.0315	-207.063	0.0910645
-40.0263	-201.538	0.159424
-40.0216	-196.305	0.2277832
-40.0151	-191.168	0.296143
-40.0109	-189.362	0.364502
-40.0044	-186.071	0.432861
-39.9986	-180.657	0.5012207
-39.9922	-178.503	0.56958
-39.98658	-176.968	0.637939
-39.9817	-177.883	0.706299
-39.9751	-175.222	0.7746582
-39.9696	-170.917	0.843018
-39.96402	-162.807	0.911377
-39.9579	-159.306	0.979736
-39.9535	-155.209	1.0481
-39.9463	-152.734	1.11646
-39.9413	-144.9045	1.18481
-39.9355	-145.445	1.25317
-39.9302	-142.627	1.32153
-39.9238	-139.918	1.38989
-39.9185	-140.598	1.458252
-39.913	-137.043	1.52661
-39.9071	-130.637	1.59497
-39.901	-125.213	1.66333
-39.89695	-124.072	1.73169
-39.8905	-119.5541	1.80005
-39.88517	-111.543	1.86841
-39.8773	-109.182	1.93677
-39.8733	-108.99	2.005127
-39.8671	-106.502	2.07349
-39.861	-104.844	2.14185
-39.8558	-101.043	2.21021
-39.8499	-97.14109	2.27856
-39.8449	-93.1388	2.34692
-39.8394	-91.713	2.41528
-39.83305	-86.802	2.48364
-39.8278	-76.2226	2.552002
-39.8207	-76.0391	2.62036
-39.8162	-75.5064	2.68872
-39.8093	-70.9115	2.75708
-39.8041	-69.99324	2.82544
-39.79948	-67.15741	2.8938
-39.79401	-64.6179	2.96216
-39.7868	-59.2628	3.03052
-39.78194	-59.8507	3.098877
-39.7759	-54.3989	3.16724
-39.7707	-44.7013	3.2356
-39.7639	-41.595	3.30396
-39.7599	-39.9843	3.37231
-39.7528	-37.8925	3.44067
-39.7469	-34.7161	3.50903
-39.7421	-33.6665	3.57739
-39.7354	-31.5081	3.645752
-39.7309	-26.8327	3.71411
-39.7239	-26.4773	3.78247
-39.7189	-21.6519	3.85083
-39.71286	-16.0762	3.91919
-39.7076	-8.47194	3.98755
-39.7021	-6.17951	4.05591
-39.6958	-4.70216	4.12427
-39.6905	-2.24537	4.192627
-39.6849	1.47431	4.26099
-39.678	3.37624	4.32935
-39.6732	4.264658	4.39771
-39.6686	5.6851	4.46606
-39.6622	10.2116	4.53442
-39.65596	18.6557	4.60278
-39.6508	22.4706	4.67114
-39.6446	26.8066	4.739502
-39.6399	30.0881	4.80786
-39.63335	33.6936	4.87622
-39.6286	37.7039	4.94458
-39.6225	37.4964	5.01294
-39.6166	39.2063	5.0813
-39.6116	37.9771	5.14966
-39.6042	42.6437	5.21802
-39.5988	50.5689	5.286377
-39.5942	52.6983	5.35474
-39.5881	58.3874	5.4231
-39.5822	64.01	5.49146
-39.5761	65.9472	5.55981
-39.5703	70.7628	5.62817
-39.5648	73.5852	5.69653
-39.5596	74.4347	5.76489
-39.5529	71.3059	5.833252
-39.5485	77.8603	5.90161
-39.5425	83.4318	5.96997
-39.5366	85.3494	6.03833
-39.5311	90.0122	6.10669
-39.524	98.3015	6.17505
-39.5202	100.698	6.24341
-39.5146	104.3215	6.31177
-39.5087	106.305	6.380127
-39.503	108.266	6.44849
-39.4979	106.0437	6.51685
-39.4902	109.658	6.58521
-39.48513	114.992	6.65356
-39.4799	118.132	6.72192
-39.47477	120.986	6.79028
-39.4681	128.338	6.85864
-39.4626	133.694	6.927002
-39.458	136.383	6.99536
-39.4513	138.975	7.06372
-39.4445	142.491	7.13208
-39.44022	139.539	7.20044
-39.43541	141.289	7.2688
-39.4282	147.68	7.33716
-39.4233	149.653	7.40552
-39.4178	153.579	7.473877
-39.4114	160.518	7.54224
-39.4057	163.231	7.6106
-39.3988	169.195	7.67896
-39.3949	172.427	7.74731
-39.3892	174.1111	7.81567
-39.3837	173.188	7.88403
-39.37706	175.062	7.95239
-39.3712	180.656	8.020752
-39.3673	181.915	8.08911
-39.3603	185.308	8.15747
-39.3539	189.979	8.22583
-39.3484	194.225	8.29419
-39.3441	200.729	8.36255
-39.3373	206.425	8.43091
-39.33144	206.222	8.49927
-39.3261	205.9109	8.567627
-39.3202	209.032	8.63599
-39.31403	211.2767	8.70435
-39.3096	212.299	8.77271
-39.3038	216.32	8.84106
-39.299	221.483	8.90942
-39.2918	224.252	8.97778
-39.2849	232.385	9.04614
-39.2801	237.2	9.114502
-39.275	238.934	9.18286
-39.2687	238.15	9.25122
-39.2634	241.085	9.31958
-39.2591	245.7849	9.38794
-39.2521	243.994	9.4563
-39.2469	246.953	9.52466
-39.2414	252.489	9.59302
-39.2344	253.519	9.661377
-39.2288	261.169	9.72974
-39.2236	268.986	9.7981
-39.2182	270.5463	9.86646
-39.2124	269.493	9.93481
-39.20723	273.2225	10.0032
-39.2001	276.547	10.0715
-39.19643	274.708	10.1399
-39.1895	277.619	10.2083
-39.1835	282.625	10.2766
-39.1769	283.255	10.345
-39.1721	289.254	10.41333
-39.167	296.7659	10.4817
-39.1609	299.511	10.55
-39.1548	300.711	10.6184
-39.1497	305.069	10.6868
-39.1442	310.354	10.7551
-39.13821	306.591	10.8235
-39.13282	308.104	10.8918
-39.1278	312.004	10.9602
-39.121	314.135	11.0286
-39.1149	319.202	11.0969
-39.1098	325.351	11.1653
-39.10445	327.018	11.2336
-39.0983	329.8822	11.302
-39.0921	333.953	11.3704
-39.0867	339.184	11.4387
-39.0814	337.542	11.50708
-39.0741	339.918	11.5754
-39.0706	340.668	11.6438
-39.0637	342.865	11.7122
-39.0592	345.554	11.7805
-39.05299	351.202	11.8489
-39.0473	354.295	11.9172
-39.0398	359.095	11.9856
-39.0355	363.696	12.054
-39.0285	366.855	12.1223
-39.024	368.617	12.1907
-39.0183	370.192	12.259
-39.0135	368.595	12.3274
-39.0063	371.234	12.3958
-39.002	375.402	12.4641
-38.9962	377.9321	12.5325
-38.9894	379.642	12.60083
-38.9846	384.386	12.6692
-38.9792	390.962	12.7375
-38.9731	394.534	12.8059
-38.9671	394.609	12.8743
-38.9617	398.971	12.9426
-38.9557	398.39	13.011
-38.9495	398.213	13.0793
-38.9447	401.603	13.1477
-38.9387	406.151	13.2161
-38.9332	405.809	13.2844
-38.9268	409.321	13.3528
-38.9221	418.155	13.4211
-38.9164	420.446	13.4895
-38.9108	421.9176	13.5579
-38.9041	425.86	13.6262
-38.8984	424.993	13.69458
-38.8934	424.471	13.7629
-38.8871	428.5827	13.8313
-38.882	431.741	13.8997
-38.8772	430.136	13.968
-38.8714	432.3187	14.0364
-38.8639	441.078	14.1047
-38.8594	444.692	14.1731
-38.8533	444.067	14.2415
-38.8479	449.353	14.3098
-38.8415	452.223	14.3782
-38.8359	451.538	14.4465
-38.8315	452.281	14.5149
-38.8248	454.66	14.5833
-38.8188	455.395	14.6516
-38.8127	455.148	14.72
-38.8078	463.092	14.78833
-38.8021	466.766	14.8567
-38.7969	468.097	14.925
-38.7911	471.114	14.9934
-38.78455	474.2	15.0618
-38.7797	475.548	15.1301
-38.7744	474.414	15.1985
-38.7676	476.836	15.2668
-38.7618	475.0899	15.3352
-38.7582	475.64	15.4036
-38.7515	483.261	15.4719
-38.7456	486.546	15.5403
-38.7398	488.664	15.6086
-38.7339	492.6785	15.677
-38.7285	495.982	15.7454
-38.7214	496.788	15.8137
-38.7167	497.767	15.88208
-38.7107	494.98	15.9504
-38.7052	493.952	16.0188
-38.6996	495.479	16.0872
-38.6943	499.492	16.1555
-38.6883	502.407	16.2239
-38.68166	504.028	16.2922
-38.6758	507.645	16.3606
-38.6712	510.858	16.429
-38.6662	511.741	16.4973
-38.6589	514.035	16.5657
-38.6533	511.325	16.634
-38.6491	508.86	16.7024
-38.6432	510.1337	16.7708
-38.6363	513.088	16.8391
-38.6315	513.509	16.9075
-38.62508	515.865	16.97583
-38.6212	520.725	17.0442
-38.6145	520.524	17.1125
-38.6084	524.557	17.1809
-38.6025	527.041	17.2493
-38.5959	524.3916	17.3176
-38.5916	520.061	17.386
-38.5863	519.411	17.4543
-38.5802	522.177	17.5227
-38.5748	521.12	17.5911
-38.568	522.656	17.6594
-38.5621	527.599	17.7278
-38.5585	525.749	17.7961
-38.5516	528.04	17.8645
-38.5461	533.084	17.9329
-38.5396	531.996	18.0012
-38.5341	524.893	18.06958
-38.5278	524.466	18.1379
-38.5236	525.959	18.2063
-38.5176	523.543	18.2747
-38.5118	522.637	18.343
-38.5057	525.723	18.4114
-38.5004	525.263	18.4797
-38.4952	528.57	18.5481
-38.4894	529.798	18.6165
-38.4833	531.253	18.6848
-38.4769	525.7099	18.7532
-38.4724	524.124	18.8215
-38.46579	525.026	18.8899
-38.4605	522.115	18.9583
-38.455	519.025	19.0266
-38.4491	522.869	19.095
-38.4433	522.905	19.16333
-38.4377	526.853	19.2317
-38.4318	528.016	19.3
-38.4273	526.472	19.3684
-38.4214	524.644	19.4368
-38.4146	523.423	19.5051
-38.4089	522.118	19.5735
-38.4027	519.908	19.6418
-38.3973	518.43	19.7102
-38.3916	518.151	19.7786
-38.3856	519.432	19.8469
-38.3789	522.0979	19.9153
-38.3743	523.418	19.9836
-38.3726	518.932	20.0129

Data Header:			0.254_hd_uprint_typeiv_4545_r0			Time:	40.0178	s	4/13/2019 7:22:23 PM
Data Acquisition:	Timed
Station Name:	ft40.cfg
Test File Name:	monotonic_0.2540_typeiv_hd_4545_uprint.tst
Displacement	Force	Running Time
mm	N	s
-38.3726	518.726	20.0227
-38.3658	517.492	20.0911
-38.3594	516.548	20.1594
-38.3538	518.374	20.2278
-38.3496	521.464	20.2961
-38.3427	522.495	20.3645
-38.3376	523.165	20.4329
-38.3322	523.34	20.5012
-38.3255	518.016	20.56958
-38.3219	514.831	20.6379
-38.3151	516.9967	20.7063
-38.3097	515.61	20.7747
-38.3027	514.476	20.843
-38.2979	515.713	20.9114
-38.2925	517.9	20.9797
-38.2859	520.704	21.0481
-38.2801	523.175	21.1165
-38.2747	520.438	21.1848
-38.2695	518.036	21.2532
-38.263	515.644	21.3215
-38.25716	515.857	21.3899
-38.2526	514.132	21.4583
-38.2456	511.4549	21.5266
-38.2411	513.814	21.595
-38.2363	514.8952	21.66333
-38.2293	516.674	21.7317
-38.2244	520.125	21.8
-38.2191	519.908	21.8684
-38.2114	516.427	21.9368
-38.2062	515.1142	22.0051
-38.2006	515.005	22.0735
-38.1957	511.083	22.1418
-38.18977	509.675	22.2102
-38.1844	510.078	22.2786
-38.1781	510.743	22.3469
-38.1722	513.902	22.4153
-38.1666	517.9071	22.4836
-38.1603	518.763	22.552
-38.1561	515.235	22.6204
-38.1506	514.99	22.6887
-38.14394	515.637	22.75708
-38.13726	511.202	22.8254
-38.1319	509.6572	22.8938
-38.1258	509.779	22.9622
-38.122	507.821	23.0305
-38.11478	509.918	23.0989
-38.1098	514.409	23.1672
-38.1044	515.687	23.2356
-38.0977	512.871	23.304
-38.0928	514.078	23.3723
-38.0854	515.902	23.4407
-38.0802	512.61	23.509
-38.0751	510.687	23.5774
-38.0705	509.229	23.6458
-38.0637	507.104	23.7141
-38.0594	509.087	23.7825
-38.0518	511.774	23.85083
-38.0466	513.032	23.9192
-38.0415	510.847	23.9875
-38.0353	512.645	24.0559
-38.0293	515.518	24.1243
-38.0238	513.136	24.1926
-38.01857	509.025	24.261
-38.0122	509.333	24.3293
-38.0069	506.779	24.3977
-38.0017	507.738	24.4661
-37.9955	509.349	24.5344
-37.9901	509.937	24.6028
-37.9834	509.262	24.6711
-37.9792	511.715	24.7395
-37.9742	514.003	24.8079
-37.9664	511.215	24.8762
-37.9614	508.5011	24.94458
-37.9567	507.592	25.0129
-37.9507	505.999	25.0813
-37.9454	506.311	25.1497
-37.939	509.114	25.218
-37.9322	505.528	25.2864
-37.9288	506.789	25.3547
-37.9215	509.128	25.4231
-37.9157	513.305	25.4915
-37.9096	511.135	25.5598
-37.9041	509.922	25.6282
-37.8984	508.983	25.6965
-37.8926	506.077	25.7649
-37.8883	506.177	25.8333
-37.8822	507.449	25.9016
-37.87616	504.176	25.97
-37.8695	503.435	26.03833
-37.8646	508.5795	26.1067
-37.8586	511.069	26.175
-37.8542	508.909	26.2434
-37.848	510.8	26.3118
-37.8429	508.412	26.3801
-37.8351	506.258	26.4485
-37.83123	506.1149	26.5168
-37.8246	504.077	26.5852
-37.8194	503.115	26.6536
-37.81263	501.958	26.7219
-37.8067	507.218	26.7903
-37.8014	510.434	26.8586
-37.7959	508.912	26.927
-37.7914	509.95	26.9954
-37.7853	510.485	27.0637
-37.7799	506.678	27.13208
-37.7746	505.522	27.2004
-37.7686	506.018	27.2688
-37.76123	501.51	27.3372
-37.7559	499.431	27.4055
-37.7511	503.757	27.4739
-37.7456	506.031	27.5422
-37.7396	506.441	27.6106
-37.734	507.683	27.679
-37.7269	509.356	27.7473
-37.72229	507.694	27.8157
-37.7167	505.709	27.884
-37.7109	506.563	27.9524
-37.7051	502.834	28.0208
-37.69873	498.542	28.0891
-37.6929	505.391	28.1575
-37.68705	505.788	28.22583
-37.6828	506.406	28.2942
-37.6765	507.867	28.3625
-37.6717	509.378	28.4309
-37.6642	506.663	28.4993
-37.6605	507.154	28.5676
-37.6545	505.232	28.636
-37.6481	502.473	28.7043
-37.6428	499.329	28.7727
-37.63567	503.2981	28.8411
-37.6307	503.717	28.9094
-37.6263	502.867	28.9778
-37.6197	504.724	29.0461
-37.6147	507.564	29.1145
-37.6077	506.984	29.1829
-37.6033	507.701	29.2512
-37.5962	506.64	29.31958
-37.5909	501.451	29.3879
-37.5857	499.549	29.4563
-37.5798	499.968	29.5247
-37.5739	501.3551	29.593
-37.5686	502.459	29.6614
-37.5633	503.965	29.7297
-37.5566	505.139	29.7981
-37.5521	507.314	29.8665
-37.5451	507.44	29.9348
-37.5405	507.2	30.0032
-37.5341	502.596	30.0715
-37.5284	499.392	30.1399
-37.5229	501.486	30.2083
-37.5176	499.562	30.2766
-37.511	500.319	30.345
-37.50597	502.947	30.41333
-37.4999	504.103	30.4817
-37.4939	504.765	30.55
-37.4888	508.713	30.6184
-37.4827	507.858	30.6868
-37.4774	503.022	30.7551
-37.4718	501.475	30.8235
-37.46534	502.1	30.8918
-37.4602	497.034	30.9602
-37.4541	499.666	31.0286
-37.4486	501.257	31.0969
-37.4427	500.754	31.1653
-37.43848	505.096	31.2336
-37.4316	505.925	31.302
-37.4265	506.407	31.3704
-37.4198	501.787	31.4387
-37.4139	501	31.50708
-37.409	501.624	31.5754
-37.4021	498.1	31.6438
-37.3972	497.385	31.7122
-37.3917	498.176	31.7805
-37.3861	498.9548	31.8489
-37.3806	501.628	31.9172
-37.37381	505.606	31.9856
-37.36924	505.867	32.054
-37.3651	500.449	32.1223
-37.3584	500.755	32.1907
-37.3507	503.049	32.259
-37.3462	498.6199	32.3274
-37.3406	496.159	32.3958
-37.3351	498.3	32.4641
-37.3292	497.365	32.5325
-37.32386	500.471	32.60083
-37.318	501.584	32.6692
-37.311	504.427	32.7375
-37.3076	501.765	32.8059
-37.3006	502.495	32.8743
-37.2951	504.278	32.9426
-37.2904	499.315	33.011
-37.284	498.05	33.0793
-37.2777	498.126	33.1477
-37.2722	497.764	33.2161
-37.2659	499.1412	33.2844
-37.261	500.677	33.3528
-37.2556	499.987	33.4211
-37.25021	500.694	33.4895
-37.2442	503.188	33.5579
-37.2388	502.812	33.6262
-37.2318	498.091	33.69458
-37.2262	497.835	33.7629
-37.2213	495.28	33.8313
-37.2158	494.646	33.8997
-37.20863	498.353	33.968
-37.2042	497.847	34.0364
-37.1985	497.942	34.1047
-37.19228	499.346	34.1731
-37.1874	503.64	34.2415
-37.1814	502.819	34.3098
-37.175	499.334	34.3782
-37.1692	500.882	34.4465
-37.1636	496.592	34.5149
-37.1579	494.575	34.5833
-37.1516	496.396	34.6516
-37.1471	498.483	34.72
-37.14064	496.205	34.78833
-37.1354	497.24	34.8567
-37.1294	501.902	34.925
-37.12463	502.142	34.9934
-37.1181	499.698	35.0618
-37.1122	500.803	35.1301
-37.106	499.315	35.1985
-37.1009	494.191	35.2668
-37.0949	494.508	35.3352
-37.0895	497.509	35.4036
-37.084	494.472	35.4719
-37.0787	493.8793	35.5403
-37.0723	502.026	35.6086
-37.0675	501.142	35.677
-37.0617	499.725	35.7454
-37.0565	499.927	35.8137
-37.0507	496.691	35.88208
-37.0445	494.4007	35.9504
-37.0378	495.034	36.0188
-37.0323	494.01	36.0872
-37.0271	491.78	36.1555
-37.0227	492.592	36.2239
-37.01585	498.768	36.2922
-37.0093	498.702	36.3606
-37.0048	497.579	36.429
-36.9995	499.247	36.4973
-36.993	497.083	36.5657
-36.9876	495.1441	36.634
-36.9815	493.5282	36.7024
-36.9762	494.0506	36.7708
-36.9705	490.72	36.8391
-36.9651	488.782	36.9075
-36.95858	495.318	36.97583
-36.9533	495.443	37.0442
-36.9474	496.6	37.1125
-36.9417	498.805	37.1809
-36.9352	496.39	37.2493
-36.9302	496.754	37.3176
-36.925	493.748	37.386
-36.9191	492.339	37.4543
-36.9123	488.383	37.5227
-36.9086	489.414	37.5911
-36.9021	493.002	37.6594
-36.8964	493.362	37.7278
-36.8906	493.755	37.7961
-36.8838	495.227	37.8645
-36.87907	494.39	37.9329
-36.87307	495.649	38.0012
-36.86734	494.039	38.06958
-36.8622	491.802	38.1379
-36.8561	487.6286	38.2063
-36.8509	486.421	38.2747
-36.8455	487.73	38.343
-36.8397	489.415	38.4114
-36.8335	490.124	38.4797
-36.828	493.565	38.5481
-36.8228	492.1879	38.6165
-36.81636	494.949	38.6848
-36.8112	493.142	38.7532
-36.8057	487.741	38.8215
-36.80014	484.0787	38.8899
-36.7936	485.983	38.9583
-36.7888	484.295	39.0266
-36.78196	483.508	39.095
-36.776	485.132	39.16333
-36.77095	487.17	39.2317
-36.7657	488.536	39.3
-36.75975	489.406	39.3684
-36.7542	490.1456	39.4368
-36.7487	483.326	39.5051
-36.743	479.504	39.5735
-36.7368	480.386	39.6418
-36.7304	477.776	39.7102
-36.7254	475.11	39.7786
-36.7196	477.1929	39.8469
-36.7151	477.503	39.9153
-36.7091	475.368	39.9836
-36.7053	471.458	40.0129

Data Header:			0.254_hd_uprint_typeiv_4545_r0			Time:	41.5603	s	4/13/2019 7:22:25 PM
Data Acquisition:	Timed
Station Name:	ft40.cfg
Test File Name:	monotonic_0.2540_typeiv_hd_4545_uprint.tst
Displacement	Force	Running Time
mm	N	s
-36.7039	465.677	40.0227
-36.70417	469.292	40.0325
-36.7042	473.584	40.0422
-36.7035	474.306	40.052
-36.7018	471.102	40.0618
-36.7012	463.298	40.0715
-36.6968	-71.8672	40.0813
-36.6965	-69.6114	40.0911
-36.69664	-46.8504	40.10083
-36.6957	-25.4221	40.1106
-36.6945	-36.9877	40.1204
-36.6948	-47.4104	40.1301
-36.6953	-48.5018	40.1399
-36.6943	-48.2926	40.1497
-36.693	-42.2073	40.1594
-36.6914	-40.74102	40.1692
-36.6906	-41.66626	40.179
-36.6917	-42.2885	40.1887
-36.689	-43.3517	40.1985
-36.6896	-47.0355	40.2083
-36.6886	-44.5662	40.218
-36.6869	-43.1636	40.2278
-36.6871	-40.6717	40.2375
-36.68642	-40.2616	40.2473
-36.68454	-45.8435	40.25708
-36.6844	-45.6391	40.2668
-36.683	-46.233	40.2766
-36.6822	-44.1386	40.2864
-36.6824	-42.1879	40.2961
-36.682	-41.6502	40.3059
-36.6808	-41.6918	40.3157
-36.6796	-43.24305	40.3254
-36.67831	-46.1967	40.3352
-36.6766	-46.5906	40.345
-36.6769	-43.8257	40.3547
-36.6768	-40.2895	40.3645
-36.6754	-42.1146	40.3743
-36.6747	-42.70715	40.384
-36.6738	-45.7528	40.3938
-36.6731	-46.1093	40.4036
-36.6735	-45.0081	40.41333
-36.672	-44.8203	40.4231
-36.6707	-41.1254	40.4329
-36.6684	-40.5278	40.4426
-36.6685	-44.2828	40.4524
-36.6674	-49.3576	40.4622
-36.66777	-46.1712	40.4719
-36.6667	-43.2001	40.4817
-36.6653	-41.3119	40.4915
-36.66473	-41.1787	40.5012
-36.6638	-44.405	40.511
-36.6624	-44.012	40.5208
-36.66246	-44.963	40.5305
-36.6611	-46.0176	40.5403
-36.6608	-40.7401	40.55
-36.6601	-39.3178	40.5598
-36.6598	-40.80341	40.56958
-36.6576	-46.3996	40.5793
-36.6575	-49.524	40.5891
-36.6559	-46.7626	40.5989
-36.6572	-40.6911	40.6086
-36.6547	-37.1897	40.6184
-36.6541	-41.983	40.6282
-36.6539	-45.44804	40.6379
-36.6531	-45.9204	40.6477
-36.65226	-48.5106	40.6575
-36.6513	-41.7043	40.6672
-36.65	-39.5281	40.677
-36.6495	-38.8694	40.6868
-36.64938	-44.3921	40.6965
-36.6486	-48.2487	40.7063
-36.6472	-47.1527	40.7161
-36.646	-42.7819	40.72583
-36.6449	-41.48703	40.7356
-36.6445	-42.1552	40.7454
-36.64312	-42.28915	40.7551
-36.6421	-44.6196	40.7649
-36.64241	-47.1897	40.7747
-36.6407	-46.114	40.7844
-36.6411	-42.8355	40.7942
-36.6397	-38.9377	40.804
-36.6385	-41.0819	40.8137
-36.6378	-46.4609	40.8235
-36.6373	-46.6837	40.8333
-36.6358	-46.3345	40.843
-36.6371	-41.1411	40.8528
-36.6345	-42.8431	40.8625
-36.6344	-42.7967	40.8723
-36.6327	-43.7115	40.88208
-36.6324	-45.6672	40.8918
-36.6313	-45.44252	40.9016
-36.6315	-47.1883	40.9114
-36.6301	-41.7654	40.9211
-36.6296	-39.69	40.9309
-36.6286	-43.6548	40.9407
-36.6272	-43.8713	40.9504
-36.6259	-46.1919	40.9602
-36.6254	-44.9809	40.97
-36.6249	-44.3546	40.9797
-36.6239	-43.0007	40.9895
-36.62347	-41.2558	40.9993
-36.623	-42.8274	41.009
-36.62138	-44.2687	41.0188
-36.6206	-47.16	41.0286
-36.6213	-45.8214	41.03833
-36.6195	-42.28841	41.0481
-36.6175	-41.0273	41.0579
-36.6178	-41.1852	41.0676
-36.6174	-45.135	41.0774
-36.6165	-45.7832	41.0872
-36.6162	-46.2323	41.0969
-36.61393	-44.5019	41.1067
-36.61396	-40.9883	41.1165
-36.6121	-38.59288	41.1262
-36.6121	-43.673	41.136
-36.6107	-46.58144	41.1458
-36.6104	-49.2182	41.1555
-36.6101	-44.8957	41.1653
-36.609	-39.7066	41.175
-36.60849	-39.186	41.1848
-36.6079	-44.7514	41.19458
-36.6073	-44.3215	41.2043
-36.6052	-47.5153	41.2141
-36.6053	-47.4143	41.2239
-36.6046	-42.2821	41.2336
-36.6032	-39.1713	41.2434
-36.6019	-39.9667	41.2532
-36.6022	-44.5	41.2629
-36.6006	-48.2128	41.2727
-36.5993	-46.33157	41.2825
-36.5985	-43.64872	41.2922
-36.5979	-40.878	41.302
-36.5976	-42.0411	41.3118
-36.5954	-44.8799	41.3215
-36.5963	-46.186	41.3313
-36.5949	-49.65136	41.3411
-36.5954	-43.18058	41.35083
-36.5919	-41.90691	41.3606
-36.5921	-38.3905	41.3704
-36.59219	-41.5971	41.3801
-36.5897	-49.3047	41.3899
-36.591	-45.70549	41.3997
-36.5897	-44.104	41.4094
-36.5889	-41.6368	41.4192
-36.5875	-40.7045	41.429
-36.5856	-41.92123	41.4387
-36.5853	-44.1766	41.4485
-36.5848	-46.1483	41.4583
-36.58395	-45.93502	41.468
-36.5821	-43.4546	41.4778
-36.5827	-40.2078	41.4875
-36.5822	-39.89225	41.4973
-36.5812	-45.17614	41.50708
-36.5801	-45.985	41.5168
-36.5785	-46.1632	41.5266
-36.5774	-43.071	41.5364
-36.5773	-42.5408	41.5461
-36.5771	-41.7691	41.5559