File: data/processed_data_files/tensile/0.254_hd_uprint_typeiv_4545_r(6).dat
MTS793|BTW|ENU|1|2|.|/|:|1|0|0|A

Data Header:			0.254_hd_uprint_typeiv_4545_r0			Time:	20.0181	s	4/13/2019 7:26:02 PM
Data Acquisition:	Timed
Station Name:	ft40.cfg
Test File Name:	monotonic_0.2540_typeiv_hd_4545_uprint.tst
Displacement	Force	Running Time
mm	N	s
-40.036	-155.625	0.0227051
-40.0343	-155.0553	0.0910645
-40.0287	-150.5229	0.159424
-40.022	-149.914	0.2277832
-40.0168	-145.491	0.296143
-40.0117	-134.724	0.364502
-40.0053	-133.0705	0.432861
-39.9998	-130.961	0.5012207
-39.995	-127.466	0.56958
-39.9881	-127.526	0.637939
-39.9824	-124.35	0.706299
-39.9767	-120.037	0.7746582
-39.9708	-119.345	0.843018
-39.9669	-117.476	0.911377
-39.9599	-109.674	0.979736
-39.95406	-100.894	1.0481
-39.949	-101.169	1.11646
-39.9429	-96.7054	1.18481
-39.9368	-92.5474	1.25317
-39.9312	-92.4283	1.32153
-39.92532	-89.1168	1.38989
-39.9205	-85.8955	1.458252
-39.9141	-85.7424	1.52661
-39.9091	-85.025	1.59497
-39.90284	-76.0188	1.66333
-39.8967	-70.2942	1.73169
-39.8907	-67.7556	1.80005
-39.8851	-63.2315	1.86841
-39.8794	-59.6014	1.93677
-39.8743	-55.4748	2.005127
-39.869	-53.6641	2.07349
-39.86264	-50.9631	2.14185
-39.8571	-51.3791	2.21021
-39.85165	-51.0157	2.27856
-39.8457	-43.5417	2.34692
-39.8398	-39.3039	2.41528
-39.8348	-33.0324	2.48364
-39.8289	-28.533	2.552002
-39.82259	-24.5214	2.62036
-39.8174	-20.91486	2.68872
-39.8114	-17.7934	2.75708
-39.8063	-17.5863	2.82544
-39.7997	-19.5575	2.8938
-39.7948	-16.1573	2.96216
-39.7887	-11.4032	3.03052
-39.7833	-7.70498	3.098877
-39.7773	-2.16732	3.16724
-39.7716	3.82293	3.2356
-39.7663	5.67019	3.30396
-39.75988	11.35701	3.37231
-39.7541	16.1832	3.44067
-39.7491	15.8289	3.50903
-39.743	14.5302	3.57739
-39.7385	19.7897	3.645752
-39.73204	22.4285	3.71411
-39.7254	24.8044	3.78247
-39.7215	30.7477	3.85083
-39.716	37.60453	3.91919
-39.70797	40.1404	3.98755
-39.7043	46.6546	4.05591
-39.6976	52.1817	4.12427
-39.692	48.1773	4.192627
-39.6861	51.06509	4.26099
-39.6802	55.3739	4.32935
-39.6739	55.77066	4.39771
-39.6702	57.4716	4.46606
-39.6639	63.246	4.53442
-39.65797	67.3804	4.60278
-39.6509	71.6999	4.67114
-39.6476	79.4319	4.739502
-39.641	83.441	4.80786
-39.6354	82.1036	4.87622
-39.6285	86.0264	4.94458
-39.623	90.4864	5.01294
-39.6177	88.8689	5.0813
-39.6124	90.1871	5.14966
-39.6063	96.1838	5.21802
-39.60191	99.2207	5.286377
-39.5947	104.0614	5.35474
-39.5892	110.7836	5.4231
-39.5842	115.796	5.49146
-39.5799	115.417	5.55981
-39.5732	117.935	5.62817
-39.5669	124.855	5.69653
-39.5597	123.664	5.76489
-39.5562	122.78	5.833252
-39.5488	129.896	5.90161
-39.5437	130.7706	5.96997
-39.5384	134.425	6.03833
-39.53273	142.314	6.10669
-39.5262	146.492	6.17505
-39.5208	146.303	6.24341
-39.5154	151.844	6.31177
-39.51088	156.744	6.380127
-39.5046	157.142	6.44849
-39.4982	157.258	6.51685
-39.4938	161.329	6.58521
-39.4864	161.028	6.65356
-39.4804	167.576	6.72192
-39.4756	172.618	6.79028
-39.4705	177.198	6.85864
-39.4638	178.575	6.927002
-39.45789	185.2543	6.99536
-39.4518	190.184	7.06372
-39.4477	189.955	7.13208
-39.4414	190.678	7.20044
-39.4373	191.942	7.2688
-39.4294	194.971	7.33716
-39.4239	200.545	7.40552
-39.4188	203.96	7.473877
-39.4133	206.586	7.54224
-39.4081	211.958	7.6106
-39.4019	217.074	7.67896
-39.3957	220.337	7.74731
-39.3894	221.821	7.81567
-39.3855	226.316	7.88403
-39.3778	225.5105	7.95239
-39.3741	227.757	8.020752
-39.3681	230.093	8.08911
-39.3631	234.2729	8.15747
-39.3561	236.922	8.22583
-39.3503	241.442	8.29419
-39.34478	247.417	8.36255
-39.33815	251.124	8.43091
-39.3338	254.997	8.49927
-39.3275	258.208	8.567627
-39.3219	255.991	8.63599
-39.3163	258.7991	8.70435
-39.3104	262.363	8.77271
-39.305	263.151	8.84106
-39.2989	265.068	8.90942
-39.2932	272.246	8.97778
-39.2883	279.286	9.04614
-39.2822	280.319	9.114502
-39.2751	286.19	9.18286
-39.2713	290.806	9.25122
-39.2659	288.59	9.31958
-39.2597	291.899	9.38794
-39.2532	294.168	9.4563
-39.2481	294.285	9.52466
-39.2428	294.0975	9.59302
-39.2362	302.1427	9.661377
-39.232	306.641	9.72974
-39.2242	309.108	9.7981
-39.2198	313.604	9.86646
-39.213	319.606	9.93481
-39.2078	319.151	10.0032
-39.2024	323.299	10.0715
-39.1965	324.8042	10.1399
-39.1907	322.451	10.2083
-39.1854	322.252	10.2766
-39.179	330.945	10.345
-39.1735	335.543	10.41333
-39.1675	336.8634	10.4817
-39.1622	342.697	10.55
-39.1568	347.563	10.6184
-39.15	351.577	10.6868
-39.1459	353.648	10.7551
-39.13979	353.16	10.8235
-39.1338	352.587	10.8918
-39.1279	353.385	10.9602
-39.1229	358.856	11.0286
-39.1168	360.929	11.0969
-39.111	363.528	11.1653
-39.1058	369.342	11.2336
-39.1003	376.116	11.302
-39.0934	378.96	11.3704
-39.0883	382.271	11.4387
-39.083	382.475	11.50708
-39.0779	380.129	11.5754
-39.0719	381.67	11.6438
-39.0662	385.811	11.7122
-39.0598	387.342	11.7805
-39.0534	392.832	11.8489
-39.0473	394.959	11.9172
-39.0428	399.799	11.9856
-39.0377	406.881	12.054
-39.03204	410.098	12.1223
-39.0255	409.448	12.1907
-39.0209	409.093	12.259
-39.015	412.069	12.3274
-39.0084	412.727	12.3958
-39.0033	414.917	12.4641
-38.9973	417.11	12.5325
-38.9923	422.543	12.60083
-38.98666	425.654	12.6692
-38.981	432.54	12.7375
-38.9749	436.494	12.8059
-38.9693	435.862	12.8743
-38.9621	435.665	12.9426
-38.9574	440.15	13.011
-38.9514	439.4	13.0793
-38.9455	438.235	13.1477
-38.9405	443.93	13.2161
-38.9356	445.097	13.2844
-38.9289	449.308	13.3528
-38.9238	454.816	13.4211
-38.9173	460.029	13.4895
-38.9117	459.993	13.5579
-38.9055	461.285	13.6262
-38.9009	466.741	13.69458
-38.8944	465.3345	13.7629
-38.8895	462.885	13.8313
-38.8833	467.061	13.8997
-38.8783	468.294	13.968
-38.87104	470.959	14.0364
-38.865	477.187	14.1047
-38.8598	480.687	14.1731
-38.85532	480.5444	14.2415
-38.8492	483.272	14.3098
-38.8436	489.289	14.3782
-38.8374	486.2457	14.4465
-38.8319	485.256	14.5149
-38.8254	487.225	14.5833
-38.82	488.073	14.6516
-38.8155	491.437	14.72
-38.8098	496.03	14.78833
-38.8044	499.314	14.8567
-38.7962	499.476	14.925
-38.793	501.462	14.9934
-38.7866	509.224	15.0618
-38.7805	507.981	15.1301
-38.7759	505.722	15.1985
-38.7689	507.573	15.2668
-38.7645	507.226	15.3352
-38.7572	508.95	15.4036
-38.7525	512.534	15.4719
-38.748	512.668	15.5403
-38.741	516.292	15.6086
-38.7351	520.5838	15.677
-38.7299	524.232	15.7454
-38.724	522.903	15.8137
-38.7177	521.817	15.88208
-38.7131	522.374	15.9504
-38.7071	520.533	16.0188
-38.7014	521.013	16.0872
-38.6948	522.93	16.1555
-38.6899	524.29	16.2239
-38.6834	524.897	16.2922
-38.6784	530.32	16.3606
-38.6726	531.975	16.429
-38.66766	532.3208	16.4973
-38.6607	533.078	16.5657
-38.6562	530.06	16.634
-38.65049	530.3114	16.7024
-38.64473	529.561	16.7708
-38.6374	527.044	16.8391
-38.6325	525.628	16.9075
-38.6279	526.368	16.97583
-38.6213	532.928	17.0442
-38.6151	533.042	17.1125
-38.61	534.359	17.1809
-38.6035	535.012	17.2493
-38.5986	530.938	17.3176
-38.5918	530.589	17.386
-38.5865	531.398	17.4543
-38.5816	528.53	17.5227
-38.5759	522.471	17.5911
-38.56942	526.257	17.6594
-38.5637	529.234	17.7278
-38.5591	529.665	17.7961
-38.5528	531.336	17.8645
-38.5471	532.713	17.9329
-38.5418	528.124	18.0012
-38.5364	530.111	18.06958
-38.5292	527.094	18.1379
-38.5245	524.451	18.2063
-38.5185	520.718	18.2747
-38.5129	524.028	18.343
-38.50695	525.046	18.4114
-38.5023	523.706	18.4797
-38.4964	527.484	18.5481
-38.4901	528.125	18.6165
-38.4843	529.678	18.6848
-38.4793	526.591	18.7532
-38.4741	527.431	18.8215
-38.4686	521.393	18.8899
-38.4624	516.783	18.9583
-38.4561	520.329	19.0266
-38.4503	521.351	19.095
-38.4444	518.563	19.16333
-38.4387	522.97	19.2317
-38.4322	524.445	19.3
-38.4271	524.767	19.3684
-38.4232	526.744	19.4368
-38.416	525.283	19.5051
-38.4111	519.954	19.5735
-38.4042	516.03	19.6418
-38.3991	520.96	19.7102
-38.3945	516.187	19.7786
-38.389	515.328	19.8469
-38.3823	518.735	19.9153
-38.37619	520.6217	19.9836
-38.3733	518.1	20.0129

Data Header:			0.254_hd_uprint_typeiv_4545_r0			Time:	33.6423	s	4/13/2019 7:26:16 PM
Data Acquisition:	Timed
Station Name:	ft40.cfg
Test File Name:	monotonic_0.2540_typeiv_hd_4545_uprint.tst
Displacement	Force	Running Time
mm	N	s
-38.3743	515.38	20.0227
-38.3693	520.771	20.0715
-38.3645	522.967	20.1204
-38.3606	519.822	20.1692
-38.357	515.618	20.218
-38.3534	517.547	20.2668
-38.3495	520.319	20.3157
-38.3458	521.308	20.3645
-38.3405	515.121	20.41333
-38.3369	515.022	20.4622
-38.3312	519.445	20.511
-38.3277	522.196	20.5598
-38.3244	517.5943	20.6086
-38.3204	511.496	20.6575
-38.3161	514.472	20.7063
-38.3121	519.871	20.7551
-38.3071	521.5127	20.804
-38.3028	514.293	20.8528
-38.2999	513.537	20.9016
-38.2956	516.081	20.9504
-38.29137	519.387	20.9993
-38.2872	519.37	21.0481
-38.2838	512.134	21.0969
-38.2803	512.9538	21.1458
-38.27549	517.663	21.19458
-38.27158	520.283	21.2434
-38.2672	516.654	21.2922
-38.2642	509.934	21.3411
-38.2583	512.078	21.3899
-38.256	517.726	21.4387
-38.2516	519.02	21.4875
-38.2469	513.876	21.5364
-38.2432	511.48	21.5852
-38.239	514.472	21.634
-38.2337	517.371	21.6829
-38.2301	515.268	21.7317
-38.2268	509.849	21.7805
-38.2229	511.984	21.8293
-38.2183	517.792	21.8782
-38.21365	517.979	21.927
-38.2102	513.543	21.97583
-38.2067	507.512	22.0247
-38.20182	510.108	22.0735
-38.1968	514.963	22.1223
-38.194	515.499	22.1711
-38.1903	510.465	22.22
-38.18504	509.182	22.2688
-38.1817	513.925	22.3176
-38.1778	513.145	22.3665
-38.1728	511.624	22.4153
-38.1704	508.027	22.4641
-38.1659	510.3432	22.5129
-38.1609	514.187	22.5618
-38.1571	515.0578	22.6106
-38.1531	512.067	22.6594
-38.1496	508.889	22.7083
-38.1452	511.253	22.75708
-38.1406	513.449	22.8059
-38.137	511.835	22.8547
-38.1335	508.786	22.9036
-38.1286	509.97	22.9524
-38.1251	513.589	23.0012
-38.1206	513.051	23.05
-38.1166	508.681	23.0989
-38.1125	507.518	23.1477
-38.1085	511.564	23.1965
-38.1049	513.7	23.2454
-38.0996	511.354	23.2942
-38.0967	509.937	23.343
-38.0929	509.969	23.3918
-38.0896	511.576	23.4407
-38.0837	510.764	23.4895
-38.0806	509.7218	23.53833
-38.07563	509.027	23.5872
-38.0719	513.608	23.636
-38.0682	514.602	23.6848
-38.0648	510.173	23.7336
-38.0594	506.791	23.7825
-38.0556	507.289	23.8313
-38.0528	510.62	23.8801
-38.0477	511.9679	23.929
-38.0439	508.47	23.9778
-38.03973	508.249	24.0266
-38.0344	510.774	24.0754
-38.0317	512.416	24.1243
-38.0268	510.3848	24.1731
-38.02277	505.516	24.2219
-38.0178	508.641	24.2708
-38.0141	512.14	24.31958
-38.0117	512.843	24.3684
-38.0079	507.906	24.4172
-38.0028	503.0849	24.4661
-37.9992	507.132	24.5149
-37.9949	510.48	24.5637
-37.9907	509.994	24.6125
-37.987	505.105	24.6614
-37.9816	506.385	24.7102
-37.9779	512.601	24.759
-37.9746	512.293	24.8079
-37.9695	506.29	24.8567
-37.9667	504.004	24.9055
-37.9621	507.555	24.9543
-37.95771	512.999	25.0032
-37.9544	513.206	25.052
-37.9502	506.835	25.10083
-37.9462	504.691	25.1497
-37.9418	508.254	25.1985
-37.9367	509.827	25.2473
-37.9338	507.962	25.2961
-37.93026	502.813	25.345
-37.9252	505.763	25.3938
-37.9222	511.777	25.4426
-37.9168	511.033	25.4915
-37.91296	504.554	25.5403
-37.9095	501.605	25.5891
-37.9051	507.189	25.6379
-37.9007	514.025	25.6868
-37.89653	511.378	25.7356
-37.893	504.878	25.7844
-37.8875	502.929	25.8333
-37.8847	507.875	25.88208
-37.88121	509.743	25.9309
-37.8776	504.672	25.9797
-37.8723	501.176	26.0286
-37.86916	504.461	26.0774
-37.8644	509.275	26.1262
-37.8606	511.719	26.175
-37.8568	503.84	26.2239
-37.8516	502.033	26.2727
-37.8494	506.565	26.3215
-37.843	511.185	26.3704
-37.8396	507.708	26.4192
-37.8356	503.797	26.468
-37.8321	505.18	26.5168
-37.8279	507.252	26.5657
-37.8233	508.275	26.6145
-37.8184	504.9194	26.66333
-37.8154	501.078	26.7122
-37.8118	503.5	26.761
-37.8079	510.414	26.8098
-37.8026	506.572	26.8586
-37.7991	501.681	26.9075
-37.7968	502.134	26.9563
-37.7898	506.57	27.0051
-37.787	509.001	27.054
-37.7826	506.254	27.1028
-37.7794	503.089	27.1516
-37.7759	505.82	27.2004
-37.7723	507.157	27.2493
-37.76598	506.194	27.2981
-37.7621	502.815	27.3469
-37.7583	500.699	27.3958
-37.7555	503.005	27.44458
-37.7502	506.553	27.4934
-37.7455	504.176	27.5422
-37.7425	501.034	27.5911
-37.74	502.4838	27.6399
-37.7333	504.858	27.6887
-37.73	505.945	27.7375
-37.7251	505.317	27.7864
-37.7225	503.561	27.8352
-37.7186	506.846	27.884
-37.7138	508.743	27.9329
-37.7085	505.132	27.9817
-37.7063	501.2012	28.0305
-37.7012	504.379	28.0793
-37.6974	506.486	28.1282
-37.6928	506.08	28.177
-37.6889	503.376	28.22583
-37.6862	500.2305	28.2747
-37.6807	500.946	28.3235
-37.6782	504.581	28.3723
-37.6734	502.905	28.4211
-37.669	500.316	28.47
-37.6647	503.011	28.5188
-37.6623	506.123	28.5676
-37.6559	506.685	28.6165
-37.6521	501.223	28.6653
-37.649	499.558	28.7141
-37.6452	502.082	28.7629
-37.641	505.036	28.8118
-37.6368	500.979	28.8606
-37.6318	499.033	28.9094
-37.62891	498.009	28.9583
-37.6246	501.58	29.00708
-37.6204	501.533	29.0559
-37.6163	497.402	29.1047
-37.6112	497.901	29.1536
-37.6083	501.79	29.2024
-37.6038	505.882	29.2512
-37.6002	504.681	29.3
-37.597	498.015	29.3489
-37.5921	496.385	29.3977
-37.5879	501.557	29.4465
-37.5838	503.387	29.4954
-37.58012	498.566	29.5442
-37.5744	496.469	29.593
-37.5725	497.461	29.6418
-37.5672	502.3	29.6907
-37.5635	499.049	29.7395
-37.5584	494.669	29.78833
-37.5562	494.525	29.8372
-37.5506	499.823	29.886
-37.5465	501.656	29.9348
-37.543	498.43	29.9836
-37.5387	493.782	30.0325
-37.5347	493.43	30.0813
-37.532	499.515	30.1301
-37.5256	498.864	30.179
-37.5217	493.064	30.2278
-37.5184	489.359	30.2766
-37.5153	493.606	30.3254
-37.5106	496.232	30.3743
-37.5065	490.995	30.4231
-37.5023	485.045	30.4719
-37.4981	484.785	30.5208
-37.4954	490.209	30.56958
-37.4903	490.649	30.6184
-37.48502	477.1	30.6672
-37.4795	-47.1343	30.7161
-37.4774	-46.9095	30.7649
-37.4747	-39.6488	30.8137
-37.4697	-42.0662	30.8625
-37.466	-46.1146	30.9114
-37.4606	-45.2278	30.9602
-37.4575	-42.1085	31.009
-37.453	-36.5995	31.0579
-37.4496	-44.8216	31.1067
-37.4446	-48.5918	31.1555
-37.4421	-46.8139	31.2043
-37.4373	-41.7721	31.2532
-37.43362	-38.8106	31.302
-37.4298	-45.5141	31.35083
-37.4255	-45.7375	31.3997
-37.4205	-43.6179	31.4485
-37.4165	-39.76902	31.4973
-37.413	-40.8653	31.5461
-37.4086	-46.2608	31.595
-37.4052	-46.6243	31.6438
-37.4017	-41.5842	31.6926
-37.3959	-39.4497	31.7415
-37.3924	-44.4478	31.7903
-37.3883	-48.9196	31.8391
-37.3836	-46.98811	31.8879
-37.3806	-41.5925	31.9368
-37.3759	-42.2295	31.9856
-37.3725	-45.9873	32.0344
-37.3674	-46.916	32.0833
-37.3639	-42.1202	32.13208
-37.359	-40.1653	32.1809
-37.35601	-42.4958	32.2297
-37.3517	-47.4303	32.2786
-37.3468	-45.7636	32.3274
-37.3444	-40.9741	32.3762
-37.3411	-40.5233	32.425
-37.3354	-43.6517	32.4739
-37.3308	-48.11195	32.5227
-37.3272	-46.69022	32.5715
-37.3231	-42.51561	32.6204
-37.3193	-43.883	32.6692
-37.3152	-45.4719	32.718
-37.3114	-44.9695	32.7668
-37.30727	-42.7063	32.8157
-37.3028	-41.9586	32.8645
-37.2985	-45.6508	32.91333
-37.2945	-46.40242	32.9622
-37.291	-44.31311	33.011
-37.2876	-41.3189	33.0598
-37.283	-42.551	33.1086
-37.2781	-44.4487	33.1575
-37.2736	-45.9491	33.2063
-37.2708	-43.4238	33.2551
-37.2661	-43.7683	33.304
-37.2618	-44.5171	33.3528
-37.2582	-45.5113	33.4016
-37.25404	-42.9598	33.4504
-37.24934	-39.3508	33.4993
-37.24641	-42.99	33.5481
-37.2424	-46.0698	33.5969
-37.2383	-42.46806	33.636