File: data/processed_data_files/tensile/0.254_hd_dimension_typei_090_r(3).dat
MTS793|BTW|ENU|1|2|.|/|:|1|0|0|A

Data Header:			0.254_hd_dimension_typei_090_r0			Time:	20.01709	s	4/15/2019 3:36:12 PM
Data Acquisition:	Timed
Station Name:	ft40.cfg
Test File Name:	monotonic_0.2540_typei_hd_090_dimension.tst
Displacement	Force	Running Time
mm	N	s
9.98067	-227.72	0.0217285
9.98271	-227.708	0.0900879
9.98786	-226.38	0.158447
9.99283	-225.336	0.226807
9.99929	-225.3011	0.295166
10.0052	-219.469	0.363525
10.0106	-213.671	0.431885
10.0155	-211.546	0.500244
10.0217	-211.1416	0.568604
10.0277	-209.516	0.636963
10.0336	-210.063	0.705322
10.0379	-211.02	0.773682
10.0442	-211.364	0.842041
10.04967	-209.935	0.9104
10.0558	-208.811	0.97876
10.0621	-202.091	1.04712
10.0669	-197.481	1.11548
10.0736	-193.998	1.18384
10.0791	-190.6897	1.2522
10.0848	-188.345	1.32056
10.0899	-188.212	1.388916
10.0957	-187.79	1.45728
10.1012	-188.374	1.52563
10.1066	-192.271	1.59399
10.1122	-189.135	1.66235
10.1196	-180.7905	1.73071
10.1239	-177.903	1.79907
10.1299	-174.44	1.86743
10.1367	-167.592	1.935791
10.1411	-166.908	2.00415
10.1468	-162.954	2.07251
10.1535	-161.355	2.14087
10.1582	-164.126	2.20923
10.1643	-166.035	2.27759
10.16926	-161.408	2.34595
10.1759	-156.905	2.41431
10.1812	-153.638	2.482666
10.1866	-147.935	2.55103
10.193	-140.35	2.61938
10.1986	-139.382	2.68774
10.2043	-134.71	2.7561
10.2101	-129.542	2.82446
10.2156	-134.146	2.89282
10.2217	-136.02	2.96118
10.2275	-131.546	3.029541
10.23198	-129.311	3.0979
10.2386	-124.643	3.16626
10.2441	-118.575	3.23462
10.2497	-112.896	3.30298
10.2538	-110.768	3.37134
10.2604	-103.693	3.4397
10.2668	-99.3754	3.50806
10.2714	-102.409	3.576416
10.2786	-105.74	3.64478
10.284	-99.1858	3.71313
10.2893	-96.7591	3.78149
10.2955	-96.6011	3.84985
10.3016	-90.6668	3.91821
10.3059	-83.8823	3.98657
10.3118	-79.5462	4.05493
10.3183	-73.8753	4.123291
10.3236	-67.863	4.19165
10.329	-68.9669	4.26001
10.33534	-71.3282	4.32837
10.3408	-65.2132	4.39673
10.3464	-64.7604	4.46509
10.3525	-63.4397	4.53345
10.3576	-58.6442	4.60181
10.3643	-54.4611	4.670166
10.3697	-47.7656	4.73853
10.3749	-41.393	4.80688
10.3811	-35.0869	4.87524
10.387	-36.63047	4.9436
10.3923	-34.7976	5.01196
10.3973	-28.8087	5.08032
10.4033	-30.1931	5.14868
10.4091	-29.5609	5.217041
10.4153	-25.7314	5.2854
10.4212	-22.0423	5.35376
10.4253	-15.6342	5.42212
10.4324	-10.9866	5.49048
10.4372	-4.208735	5.55884
10.4443	-1.81862	5.6272
10.4493	0.185344	5.69556
10.4553	5.94723	5.763916
10.4596	5.76175	5.83228
10.4665	5.66408	5.90063
10.4716	7.08034	5.96899
10.4774	10.563	6.03735
10.4834	16.3745	6.10571
10.4875	22.5768	6.17407
10.4953	28.2503	6.24243
10.5004	31.9214	6.310791
10.5055	38.587	6.37915
10.5122	40.88747	6.44751
10.518	43.3314	6.51587
10.5222	43.8568	6.58423
10.5298	44.0644	6.65259
10.5354	44.4303	6.72095
10.5408	50.7673	6.78931
10.5464	55.4511	6.857666
10.5516	58.264	6.92603
10.5571	65.9374	6.99438
10.5637	73.8515	7.06274
10.5682	75.3963	7.1311
10.5743	78.3031	7.19946
10.5785	79.736	7.26782
10.5852	79.2491	7.33618
10.592	82.0842	7.404541
10.5962	85.0341	7.4729
10.603	89.76062	7.54126
10.6084	90.6229	7.60962
10.6139	97.5702	7.67798
10.6209	107.956	7.74634
10.6256	109.898	7.8147
10.6319	113.743	7.88306
10.6375	117.845	7.951416
10.6434	114.718	8.01978
10.64784	116.548	8.08813
10.654	118.657	8.15649
10.6591	123.209	8.22485
10.6653	125.185	8.29321
10.6705	130.375	8.36157
10.6768	141.787	8.42993
10.6824	143.9528	8.498291
10.6881	148.361	8.56665
10.6945	152.626	8.63501
10.6994	151.941	8.70337
10.7055	151.359	8.77173
10.7108	153.873	8.84009
10.7167	157.237	8.90845
10.7228	154.884	8.97681
10.7283	164.631	9.045166
10.734	173.116	9.11353
10.7394	177.67	9.18188
10.7452	182.532	9.25024
10.7515	187.081	9.3186
10.756	188.013	9.38696
10.7623	189.402	9.45532
10.7685	192.242	9.52368
10.7747	192.906	9.592041
10.7798	191.4622	9.6604
10.7853	195.512	9.72876
10.7908	206.561	9.79712
10.7968	210.061	9.86548
10.8029	215.684	9.93384
10.8072	221.366	10.0022
10.8123	222.649	10.0706
10.8195	226.92	10.1389
10.8261	226.209	10.2073
10.83074	225.187	10.2756
10.8363	225.4527	10.344
10.84323	231.925	10.4124
10.84788	238.926	10.4807
10.85345	242.176	10.5491
10.8592	250.449	10.6174
10.8648	255.2287	10.6858
10.8709	258.3739	10.75415
10.8762	263.979	10.82251
10.8822	262.676	10.8909
10.8875	259.93	10.9592
10.89217	260.95	11.0276
10.8987	266.3298	11.0959
10.9054	270.777	11.1643
10.9094	274.803	11.2327
10.91573	282.422	11.301
10.9221	286.867	11.3694
10.9276	293.169	11.4377
10.9322	297.981	11.5061
10.9391	298.786	11.5745
10.9435	296.919	11.6428
10.9512	297.696	11.7112
10.9561	302.194	11.7795
10.9617	302.9393	11.8479
10.9672	308.472	11.91626
10.9723	315.689	11.9846
10.9779	319.109	12.053
10.9851	326.843	12.1213
10.9897	333.108	12.1897
10.9957	334.668	12.2581
11.0022	332.344	12.3264
11.0073	333.932	12.3948
11.01322	337.739	12.4631
11.0189	334.533	12.5315
11.0251	337.2851	12.5999
11.0298	346.536	12.6682
11.0356	351.573	12.7366
11.042	358.324	12.8049
11.0479	366.719	12.8733
11.0528	368.35	12.94165
11.0591	366.616	13.01001
11.0641	368.303	13.0784
11.0707	371.191	13.1467
11.0756	370.216	13.2151
11.081	371.505	13.2834
11.0884	378.927	13.3518
11.0926	382.879	13.4202
11.0978	388.649	13.4885
11.1042	396.633	13.5569
11.1099	400.992	13.6252
11.1162	399.818	13.6936
11.1214	402.914	13.762
11.1277	406.99	13.8303
11.1325	405.34	13.8987
11.1383	405.407	13.967
11.1441	409.992	14.0354
11.1497	415.046	14.10376
11.1556	418.533	14.1721
11.1607	425.656	14.2405
11.1656	432.294	14.3088
11.1728	433.035	14.3772
11.1778	434.9166	14.4456
11.1833	442.85	14.5139
11.18944	438.7883	14.5823
11.1954	439.258	14.6506
11.20093	441.497	14.719
11.2061	442.706	14.7874
11.2117	447.945	14.8557
11.218	457.383	14.9241
11.224	460.6835	14.9924
11.2292	465.48	15.0608
11.2346	472.811	15.12915
11.23981	475.385	15.19751
11.24577	475.971	15.2659
11.2521	475.258	15.3342
11.2578	473.972	15.4026
11.2638	477.509	15.4709
11.2692	482.497	15.5393
11.275	486.4259	15.6077
11.2804	490.298	15.676
11.2869	497.246	15.7444
11.2918	505.142	15.8127
11.2973	506.4718	15.8811
11.3029	507.837	15.9495
11.3078	509.034	16.0178
11.3142	507.92	16.0862
11.3202	508.571	16.1545
11.32629	513.184	16.2229
11.3316	517.056	16.29126
11.337	517.795	16.3596
11.3424	525.752	16.428
11.3487	534.4494	16.4963
11.3534	537.695	16.5647
11.3601	539.053	16.6331
11.3665	542.704	16.7014
11.3719	540.1	16.7698
11.3769	541.3103	16.8381
11.3834	543.462	16.9065
11.3885	546.21	16.9749
11.3937	546.17	17.0432
11.4001	554.463	17.1116
11.4057	565.283	17.1799
11.4115	567.469	17.2483
11.4173	569.295	17.31665
11.4236	575.848	17.38501
11.4285	572.244	17.4534
11.4358	573.07	17.5217
11.4396	574.443	17.5901
11.4454	574.924	17.6584
11.4526	575.552	17.7268
11.4574	580.572	17.7952
11.4631	592.35	17.8635
11.4677	594.954	17.9319
11.474	600.942	18.0002
11.4801	604.6413	18.0686
11.4852	604.339	18.137
11.4913	605.101	18.2053
11.4974	605.555	18.2737
11.5021	603.404	18.342
11.5088	603.729	18.4104
11.5144	609.254	18.47876
11.5192	619.149	18.5471
11.5259	623.372	18.6155
11.5311	627.499	18.6838
11.5362	632.8717	18.7522
11.54301	636.0625	18.8206
11.5473	638.314	18.8889
11.5539	636.441	18.9573
11.5591	634.875	19.0256
11.5659	632.991	19.094
11.5714	638.168	19.1624
11.57635	644.677	19.2307
11.5826	649.225	19.2991
11.5873	655.233	19.3674
11.5939	660.48	19.4358
11.59917	664.068	19.50415
11.6058	666.9	19.57251
11.6102	665.518	19.6409
11.616	663.71	19.7092
11.6226	663.365	19.7776
11.6272	667.851	19.8459
11.6344	671.2041	19.9143
11.6397	674.174	19.9827
11.6423	681.192	20.012

Data Header:			0.254_hd_dimension_typei_090_r0			Time:	40.0168	s	4/15/2019 3:36:32 PM
Data Acquisition:	Timed
Station Name:	ft40.cfg
Test File Name:	monotonic_0.2540_typei_hd_090_dimension.tst
Displacement	Force	Running Time
mm	N	s
11.6422	676.34	20.0217
11.6483	678.267	20.0901
11.6554	680.755	20.1584
11.6593	678.3739	20.2268
11.6652	684.536	20.2952
11.6714	694.581	20.3635
11.6777	699.104	20.4319
11.6825	702.792	20.5002
11.6884	706.598	20.5686
11.6928	706.638	20.637
11.6998	707.955	20.7053
11.7053	706.05	20.7737
11.7107	705.38	20.842
11.7177	705.902	20.9104
11.723	712.067	20.97876
11.7283	718.932	21.0471
11.7337	723.489	21.1155
11.7391	728.018	21.1838
11.7453	732.812	21.2522
11.7514	733.421	21.3206
11.7563	736.2359	21.3889
11.7622	733.635	21.4573
11.7669	731.67	21.5256
11.7729	731.583	21.594
11.779	735.706	21.6624
11.78514	741.454	21.7307
11.7906	745.51	21.7991
11.7966	752.42	21.8674
11.8016	755.108	21.9358
11.8074	758.137	22.00415
11.81335	761.285	22.07251
11.819	760.74	22.1409
11.82515	756.497	22.2092
11.8306	755.282	22.2776
11.8354	760.131	22.3459
11.8411	761.748	22.4143
11.8474	766.589	22.4827
11.85295	773.471	22.551
11.8589	777.1767	22.6194
11.8649	779.8	22.6877
11.8713	786.034	22.7561
11.8764	783.631	22.8245
11.88198	779.286	22.8928
11.8876	777.87	22.9612
11.8932	782.545	23.0295
11.8991	782.192	23.0979
11.9045	784.826	23.16626
11.9114	789.393	23.2346
11.9156	795.656	23.303
11.9214	797.56	23.3713
11.9278	804.469	23.4397
11.9328	803.857	23.5081
11.9393	800.563	23.5764
11.9445	797.871	23.6448
11.9501	800.704	23.7131
11.9559	800.053	23.7815
11.9613	800.959	23.8499
11.9676	806.8053	23.9182
11.97209	810.16	23.9866
11.9786	814.67	24.0549
11.9846	819.703	24.1233
11.9898	821.172	24.19165
11.9971	817.233	24.26001
12.0016	818.545	24.3284
12.0064	819.639	24.3967
12.0129	815.731	24.4651
12.0187	815.524	24.5334
12.0233	818.436	24.6018
12.0305	820.659	24.6702
12.0348	826.619	24.7385
12.041	831.136	24.8069
12.0471	833.472	24.8752
12.0521	832.19	24.9436
12.0584	831.378	25.012
12.0646	831.638	25.0803
12.0693	827.806	25.1487
12.0758	827.877	25.217
12.0795	826.895	25.2854
12.0867	830.358	25.35376
12.0935	834.97	25.4221
12.0983	839.584	25.4905
12.1037	840.654	25.5588
12.1105	841.518	25.6272
12.1144	842.602	25.6956
12.1208	842.554	25.7639
12.1259	838.144	25.8323
12.1323	837.872	25.9006
12.139	836.065	25.969
12.14334	836.943	26.0374
12.1494	839.899	26.1057
12.1552	844.624	26.1741
12.1603	841.393	26.2424
12.1676	846.934	26.3108
12.1725	851.067	26.37915
12.1785	849.088	26.44751
12.1831	846.079	26.5159
12.1908	843.753	26.5842
12.1953	840.526	26.6526
12.20054	838.148	26.7209
12.2068	842.732	26.7893
12.2117	844.867	26.8577
12.2182	843.085	26.926
12.223	848.532	26.9944
12.22919	853.354	27.0627
12.2346	850.589	27.1311
12.2408	848.388	27.1995
12.2472	848.621	27.2678
12.2512	843.542	27.3362
12.2578	840.576	27.4045
12.2634	841.618	27.4729
12.2683	845.284	27.54126
12.2746	841.119	27.6096
12.2805	846.544	27.678
12.2864	853.808	27.7463
12.2921	852.242	27.8147
12.2975	848.182	27.8831
12.3038	850.683	27.9514
12.309	845.667	28.0198
12.3145	842.071	28.0881
12.3202	840.183	28.1565
12.3259	840.0871	28.2249
12.3324	837.627	28.2932
12.3369	842.95	28.3616
12.3433	848.254	28.4299
12.3491	847.881	28.4983
12.35397	846.674	28.56665
12.3603	848.308	28.63501
12.3665	843.535	28.7034
12.3724	840.831	28.7717
12.3777	838.324	28.8401
12.3824	836.355	28.9084
12.3888	833.863	28.9768
12.3953	835.404	29.0452
12.4001	841.698	29.1135
12.4058	844.272	29.1819
12.4111	844.133	29.2502
12.4179	845.822	29.3186
12.4222	842.026	29.387
12.4281	839.659	29.4553
12.4349	836.92	29.5237
12.4398	831.576	29.592
12.4447	829.434	29.6604
12.4511	830.597	29.72876
12.456	836.639	29.7971
12.4628	837.424	29.8655
12.4687	839.983	29.9338
12.4739	841.518	30.0022
12.4798	839.499	30.0706
12.4851	838.591	30.1389
12.4912	835.201	30.2073
12.4968	829.357	30.2756
12.5032	827.063	30.344
12.5089	828.121	30.4124
12.5144	830.303	30.4807
12.5191	830.55	30.5491
12.5251	835.386	30.6174
12.5324	836	30.6858
12.5361	837.745	30.75415
12.5423	836.363	30.82251
12.5482	832.651	30.8909
12.5533	826.963	30.9592
12.56	823.78	31.0276
12.5651	824.425	31.0959
12.5705	824.423	31.1643
12.5759	825.441	31.2327
12.5815	831.189	31.301
12.5885	831.837	31.3694
12.5933	834.512	31.4377
12.5999	835.049	31.5061
12.605	832.953	31.5745
12.61146	826.011	31.6428
12.6168	822.7002	31.7112
12.62313	823.9032	31.7795
12.6282	820.638	31.8479
12.6346	820.422	31.91626
12.6398	826.487	31.9846
12.6453	826.998	32.053
12.65	830.226	32.1213
12.6568	834.862	32.1897
12.6618	832.5769	32.2581
12.66799	825.974	32.3264
12.6736	821.8808	32.3948
12.679	823.146	32.4631
12.6844	818.0343	32.5315
12.6903	818.862	32.5999
12.6969	821.396	32.6682
12.70155	822.878	32.7366
12.7073	825.219	32.8049
12.7135	831.551	32.8733
12.7197	829.31	32.94165
12.7245	824.28	33.01001
12.7319	824.332	33.0784
12.73558	823.901	33.1467
12.7424	816.675	33.2151
12.7473	816.829	33.2834
12.7525	818.865	33.3518
12.7586	819.404	33.4202
12.7646	823.5058	33.4885
12.77	827.6994	33.5569
12.7757	827.273	33.6252
12.7817	825.186	33.6936
12.7876	824.947	33.762
12.7924	823.101	33.8303
12.79818	817.696	33.8987
12.8046	817.049	33.967
12.811	816.403	34.0354
12.817	818.7439	34.10376
12.8218	821.301	34.1721
12.8266	825.609	34.2405
12.83318	824.224	34.3088
12.8382	824.581	34.3772
12.8449	825.947	34.4456
12.8495	826.62	34.5139
12.8561	821.746	34.5823
12.8622	818.282	34.6506
12.8678	816.3374	34.719
12.8725	817.601	34.7874
12.87787	819.6001	34.8557
12.8838	821.663	34.9241
12.8906	821.964	34.9924
12.8965	824.749	35.0608
12.9021	825.593	35.12915
12.9073	826.312	35.19751
12.9127	823.176	35.2659
12.9181	819.052	35.3342
12.9243	815.394	35.4026
12.9296	817.352	35.4709
12.936	818.516	35.5393
12.9424	817.728	35.6077
12.948	819.544	35.676
12.9528	823.379	35.7444
12.9593	827.363	35.8127
12.9635	824.209	35.8811
12.96992	824.513	35.9495
12.9765	823.427	36.0178
12.98137	815.641	36.0862
12.9874	815.959	36.1545
12.99332	817.338	36.2229
12.9982	813.569	36.29126
13.0038	813.215	36.3596
13.0094	821.3	36.428
13.0148	826.606	36.4963
13.0205	824.2995	36.5647
13.0264	826.782	36.6331
13.033	823.567	36.7014
13.03806	818.2215	36.7698
13.0446	816.734	36.8381
13.0485	817.671	36.9065
13.055	813.896	36.9749
13.0614	812.089	37.0432
13.0667	820.181	37.1116
13.072	824.737	37.1799
13.0789	823.867	37.2483
13.0831	825.286	37.31665
13.089	825.415	37.38501
13.0952	821.001	37.4534
13.1015	820.14	37.5217
13.1061	816.977	37.5901
13.1117	812.027	37.6584
13.119	810.021	37.7268
13.12465	819.255	37.7952
13.1297	822.184	37.8635
13.13487	820.796	37.9319
13.1414	824.416	38.0002
13.1465	825.666	38.0686
13.1513	823.921	38.137
13.1583	821.514	38.2053
13.16439	818.133	38.2737
13.1693	812.484	38.342
13.175	810.824	38.4104
13.181	817.9845	38.47876
13.1862	819.202	38.5471
13.1912	820.822	38.6155
13.1966	824.654	38.6838
13.2033	827.13	38.7522
13.2081	826.063	38.8206
13.2141	822.502	38.8889
13.2205	818.04	38.9573
13.2266	815.444	39.0256
13.2316	811.444	39.094
13.2373	816.0567	39.1624
13.2428	815.497	39.2307
13.249	818.517	39.2991
13.2551	822.245	39.3674
13.2603	823.558	39.4358
13.26599	827.593	39.50415
13.2716	824.694	39.57251
13.2783	821.8161	39.6409
13.2825	815.241	39.7092
13.2888	813.294	39.7776
13.295	813.585	39.8459
13.3001	812.768	39.9143
13.3063	815.744	39.9827
13.3088	825.909	40.012

Data Header:			0.254_hd_dimension_typei_090_r0			Time:	54.8762	s	4/15/2019 3:36:47 PM
Data Acquisition:	Timed
Station Name:	ft40.cfg
Test File Name:	monotonic_0.2540_typei_hd_090_dimension.tst
Displacement	Force	Running Time
mm	N	s
13.3098	817.823	40.0217
13.3138	820.497	40.0803
13.31848	824.276	40.1389
13.3241	821.629	40.19751
13.3285	826.342	40.2561
13.3332	823.571	40.3147
13.3387	824.41	40.3733
13.3438	820.929	40.4319
13.3491	822.57	40.4905
13.3532	817.345	40.5491
13.358	815.039	40.6077
13.3631	815.251	40.66626
13.368	810.346	40.7249
13.37284	812.712	40.7834
13.3771	812.7124	40.842
13.3822	814.574	40.9006
13.3883	813.513	40.9592
13.3919	820.36	41.0178
13.3957	818.764	41.0764
13.4021	823.49	41.13501
13.4063	822.473	41.1936
13.41248	824.543	41.2522
13.41712	821.314	41.3108
13.4212	820.918	41.3694
13.4262	820.888	41.428
13.4312	818.097	41.4866
13.4362	815.891	41.5452
13.441	815.271	41.60376
13.4456	812.977	41.6624
13.4507	814.428	41.7209
13.4542	814.612	41.7795
13.4601	814.567	41.8381
13.4652	816.547	41.8967
13.47106	820.192	41.9553
13.4754	820.209	42.0139
13.48023	826.697	42.07251
13.48493	824.116	42.1311
13.4904	826.145	42.1897
13.4947	823.873	42.2483
13.4988	822.886	42.3069
13.504	818.85	42.3655
13.51017	817.466	42.4241
13.5141	815.296	42.4827
13.5185	812.219	42.54126
13.5231	813.089	42.5999
13.5283	811.517	42.6584
13.53509	811.941	42.717
13.5383	809.663	42.7756
13.5431	817.642	42.8342
13.5495	813.212	42.8928
13.5536	820.816	42.9514
13.5575	819.938	43.01001
13.5614	824.3598	43.0686
13.5675	821.113	43.1272
13.5724	822.57	43.1858
13.5775	820.494	43.2444
13.5816	818.211	43.303
13.587	818.106	43.3616
13.5931	814.88	43.4202
13.5968	816.504	43.47876
13.6017	813.945	43.5374
13.6078	814.449	43.5959
13.6118	812.551	43.6545
13.6174	816.513	43.7131
13.62156	816.723	43.7717
13.6263	817.517	43.8303
13.6315	822.808	43.8889
13.6363	821.061	43.94751
13.6411	824.32	44.0061
13.6467	821.461	44.0647
13.65135	824.274	44.1233
13.6558	817.908	44.1819
13.6615	819.22	44.2405
13.6651	815.6662	44.2991
13.6702	814.04	44.3577
13.6745	813.333	44.41626
13.6806	809.727	44.4749
13.6848	810.711	44.5334
13.6898	809.723	44.592
13.6947	815.26	44.6506
13.6995	811.041	44.7092
13.7047	819.936	44.7678
13.71	818.765	44.8264
13.7133	820.833	44.88501
13.7192	819.393	44.9436
13.7236	823.579	45.0022
13.7285	820.624	45.0608
13.7338	818.806	45.1194
13.7394	818.907	45.178
13.7442	816.853	45.2366
13.7478	817.041	45.2952
13.7526	813.3446	45.35376
13.7577	812.906	45.4124
13.7635	811.842	45.4709
13.768	812.899	45.5295
13.773	813.294	45.5881
13.7786	815.627	45.6467
13.7825	816.546	45.7053
13.7875	819.156	45.7639
13.7916	823.542	45.82251
13.7973	822.068	45.8811
13.8023	825.4906	45.9397
13.8072	821.0354	45.9983
13.8125	822.5061	46.0569
13.8175	819.093	46.1155
13.8218	815.466	46.1741
13.8272	815.749	46.2327
13.8313	812.073	46.29126
13.8369	809.789	46.3499
13.8416	810.028	46.4084
13.8464	813.684	46.467
13.8515	811.778	46.5256
13.8551	816.999	46.5842
13.8603	815.133	46.6428
13.8649	819.214	46.7014
13.8715	818.463	46.76001
13.876	824.179	46.8186
13.8806	820.363	46.8772
13.8852	820.432	46.9358
13.8897	820.235	46.9944
13.8944	819.267	47.053
13.8999	816.086	47.1116
13.904	815.239	47.1702
13.9095	814.193	47.22876
13.915	810.662	47.2874
13.9188	812.378	47.3459
13.9241	812.102	47.4045
13.9285	813.489	47.4631
13.9339	816.314	47.5217
13.9393	817.271	47.5803
13.9437	819.884	47.6389
13.9472	820.878	47.69751
13.95343	823.59	47.7561
13.9584	821.044	47.8147
13.9634	825.121	47.8733
13.9674	819.774	47.9319
13.9735	818.513	47.9905
13.97796	815.459	48.0491
13.9838	812.719	48.1077
13.988	811.999	48.16626
13.9929	809.645	48.2249
13.9979	811.125	48.2834
14.0029	807.658	48.342
14.00683	813.537	48.4006
14.0125	813.259	48.4592
14.0173	818.653	48.5178
14.0212	817.359	48.5764
14.0264	821.807	48.63501
14.0315	819.303	48.6936
14.0363	820.852	48.7522
14.0413	821.472	48.8108
14.04617	818.4364	48.8694
14.051	819.236	48.928
14.057	816.449	48.9866
14.0607	813.571	49.0452
14.0658	813.603	49.10376
14.071	813.453	49.1624
14.0768	809.141	49.2209
14.0801	811.487	49.2795
14.0845	813.4541	49.3381
14.0908	815.164	49.3967
14.0946	816.971	49.4553
14.1005	818.416	49.5139
14.1055	822.113	49.57251
14.11	818.992	49.6311
14.1151	824.814	49.6897
14.11936	821.174	49.7483
14.1246	821.207	49.8069
14.1294	815.904	49.8655
14.1339	814.3064	49.9241
14.13812	809.953	49.9827
14.144	810.032	50.04126
14.1489	807.796	50.0999
14.1532	806.807	50.1584
14.1587	810.97	50.217
14.1637	807.1908	50.2756
14.1682	813.922	50.3342
14.1729	812.615	50.3928
14.178	817.942	50.4514
14.1834	816.116	50.51001
14.1879	819.891	50.5686
14.1924	819.242	50.6272
14.1978	817.265	50.6858
14.202	817.934	50.7444
14.2081	815.414	50.803
14.213	815.549	50.8616
14.2166	812.099	50.9202
14.2214	811.378	50.97876
14.2265	809.482	51.0374
14.2324	809.2337	51.0959
14.2362	809.552	51.1545
14.2424	810.274	51.2131
14.2468	811.054	51.2717
14.251	815.366	51.3303
14.2564	817.423	51.3889
14.2603	816.4176	51.44751
14.26593	820.033	51.5061
14.27129	815.391	51.5647
14.2761	816.201	51.6233
14.281	811.42	51.6819
14.28859	-32.45261	51.7405
14.2917	-47.3624	51.7991
14.2963	-47.87101	51.8577
14.3003	-51.122	51.91626
14.3063	-54.1798	51.9749
14.311	-49.4667	52.0334
14.3151	-53.2249	52.092
14.3203	-49.8889	52.1506
14.3257	-48.8878	52.2092
14.32936	-43.8803	52.2678
14.3349	-46.4921	52.3264
14.33874	-38.3048	52.38501
14.3449	-41.2363	52.4436
14.3492	-39.5431	52.5022
14.3548	-40.5945	52.5608
14.35888	-42.4125	52.6194
14.3639	-43.6941	52.678
14.3681	-46.9829	52.7366
14.373	-45.3013	52.7952
14.3793	-48.7772	52.85376
14.3837	-48.5446	52.9124
14.38851	-49.1588	52.9709
14.3927	-49.0517	53.0295
14.3985	-48.3277	53.0881
14.4027	-45.6476	53.1467
14.4083	-42.7714	53.2053
14.413	-44.2753	53.2639
14.4184	-38.6684	53.32251
14.4218	-41.3706	53.3811
14.4275	-38.5357	53.4397
14.4321	-41.2475	53.4983
14.4372	-41.1042	53.5569
14.442	-46.1744	53.6155
14.44751	-44.0585	53.6741
14.453	-48.9322	53.7327
14.4567	-52.8277	53.79126
14.4618	-50.3192	53.8499
14.4669	-53.0074	53.9084
14.4709	-50.9276	53.967
14.47566	-52.8291	54.0256
14.4808	-48.0831	54.0842
14.4859	-47.5883	54.1428
14.4914	-41.4342	54.2014
14.4953	-44.44809	54.26001
14.5004	-40.4362	54.3186
14.5063	-41.5607	54.3772
14.5104	-40.9218	54.4358
14.515	-43.6688	54.4944
14.52	-44.7326	54.553
14.525	-45.1315	54.6116
14.5295	-48.3413	54.6702
14.5355	-50.0046	54.72876
14.539	-52.0801	54.7874
14.5451	-51.3702	54.8459
14.5461	-43.6763	54.8655