File: data/processed_data_files/tensile/0.254_solid_uprint_typei_4545_r(5).dat
MTS793|BTW|ENU|1|2|.|/|:|1|0|0|A

Data Header:			0.254_solid_uprint_typei_4545_r0			Time:	20.0176	s	4/14/2019 4:29:36 AM
Data Acquisition:	Timed
Station Name:	ft40.cfg
Test File Name:	monotonic_0.2540_typei_solid_4545_uprint.tst
Displacement	Force	Running Time
mm	N	s
9.95785	-122.918	0.0224609
9.95946	-120.024	0.0908203
9.96514	-122.36	0.15918
9.97166	-119.7672	0.227539
9.97798	-109.654	0.295898
9.98327	-99.0946	0.364258
9.98745	-94.7808	0.432617
9.995	-87.2906	0.500977
9.99959	-85.5583	0.569336
10.006	-87.8413	0.637695
10.0116	-87.4898	0.706055
10.0169	-86.8329	0.774414
10.0232	-91.3888	0.842773
10.0288	-88.40641	0.911133
10.0336	-78.4039	0.979492
10.0392	-71.3022	1.04785
10.0447	-67.6067	1.11621
10.05	-55.7714	1.18457
10.05644	-50.5316	1.25293
10.0622	-51.3652	1.32129
10.0682	-50.499	1.38965
10.075	-52.0377	1.45801
10.0794	-54.6723	1.52637
10.0845	-54.6405	1.59473
10.0909	-46.6675	1.66309
10.0965	-41.0036	1.73145
10.1022	-34.73896	1.7998
10.1075	-23.1183	1.86816
10.1146	-18.9632	1.93652
10.119	-15.5957	2.00488
10.1248	-12.2502	2.07324
10.1306	-12.831	2.1416
10.1366	-20.47714	2.20996
10.1419	-18.0711	2.27832
10.148	-11.9396	2.34668
10.1526	-10.01595	2.41504
10.1594	-2.17867	2.4834
10.16416	6.949954	2.55176
10.17	14.5644	2.62012
10.1751	20.7113	2.68848
10.1815	23.08935	2.75684
10.1868	22.905	2.8252
10.1936	18.9323	2.89355
10.1992	21.9443	2.96191
10.2042	22.5271	3.03027
10.21	23.6754	3.09863
10.21543	28.9546	3.16699
10.2214	39.4256	3.23535
10.2271	47.31374	3.30371
10.2331	53.7005	3.37207
10.23865	59.76749	3.44043
10.2444	59.7256	3.50879
10.2508	58.37727	3.57715
10.2557	60.3791	3.64551
10.2614	59.1385	3.71387
10.2667	59.9399	3.78223
10.2732	63.8242	3.85059
10.2786	71.9153	3.91895
10.2837	79.8375	3.9873
10.2891	87.8195	4.05566
10.2961	93.0288	4.12402
10.3017	96.1085	4.19238
10.30631	98.4369	4.26074
10.3123	99.96209	4.3291
10.318	98.5223	4.39746
10.3242	99.0266	4.46582
10.3289	100.751	4.53418
10.3365	103.562	4.60254
10.3405	114.234	4.6709
10.3467	121.45	4.73926
10.3529	127.618	4.80762
10.3585	132.838	4.87598
10.36315	137.468	4.94434
10.3697	139.325	5.0127
10.375	138.697	5.08105
10.3801	135.243	5.14941
10.3852	136.692	5.21777
10.3922	139.408	5.28613
10.3979	146.92	5.35449
10.4028	153.794	5.42285
10.4097	158.918	5.49121
10.4152	166.238	5.55957
10.42065	174.83	5.62793
10.4268	176.226	5.69629
10.432	175.706	5.76465
10.4381	176.221	5.83301
10.4437	174.281	5.90137
10.4496	173.947	5.96973
10.45533	180.314	6.03809
10.4611	186.151	6.10645
10.4662	189.277	6.1748
10.4718	199.5139	6.24316
10.4783	211.569	6.31152
10.4833	212.814	6.37988
10.489	216.133	6.44824
10.4951	216.512	6.5166
10.5005	212.759	6.58496
10.5067	211.485	6.65332
10.5118	214.296	6.72168
10.5173	218.074	6.79004
10.5227	222.227	6.8584
10.5285	232.996	6.92676
10.5345	245.658	6.99512
10.5406	248.314	7.06348
10.5458	252.038	7.13184
10.55195	256.57	7.2002
10.558	249.211	7.26855
10.5638	249.373	7.33691
10.5681	252.5923	7.40527
10.5746	252.798	7.47363
10.58059	253.53	7.54199
10.5866	264.657	7.61035
10.5915	277.1514	7.67871
10.5965	283.176	7.74707
10.6034	288.9794	7.81543
10.6092	294.182	7.88379
10.6142	292.723	7.95215
10.6192	289.315	8.02051
10.6264	289.932	8.08887
10.6315	287.129	8.15723
10.6369	287.687	8.22559
10.6425	298.7	8.29395
10.6479	310.279	8.3623
10.6539	315.342	8.43066
10.6596	325.236	8.49902
10.6666	328.833	8.56738
10.6709	330.01	8.63574
10.6774	328.927	8.7041
10.682	327.995	8.77246
10.68929	325.194	8.84082
10.6943	323.723	8.90918
10.6999	330.525	8.97754
10.7053	337.387	9.0459
10.711	343.463	9.11426
10.7163	355.146	9.18262
10.7224	362.7254	9.25098
10.7269	368.534	9.31934
10.7341	370.8869	9.3877
10.7396	368.4	9.45605
10.7442	364.081	9.52441
10.7512	359.926	9.59277
10.7564	365.385	9.66113
10.7621	368.727	9.72949
10.7682	373.722	9.79785
10.7743	385.906	9.86621
10.7795	393.3252	9.93457
10.7847	401.298	10.00293
10.7905	406.614	10.0713
10.7964	407.432	10.1396
10.8027	403.141	10.208
10.80679	398.306	10.2764
10.813	400.991	10.3447
10.8191	400.842	10.4131
10.8249	405.193	10.4814
10.8304	412.482	10.5498
10.8366	422.161	10.6182
10.8412	434.045	10.6865
10.8473	441.332	10.7549
10.8537	442.92	10.8232
10.8577	441.664	10.8916
10.8641	438.371	10.96
10.87	439.51	11.02832
10.876	435.864	11.09668
10.8819	438.343	11.165
10.8873	443.9249	11.2334
10.8936	453.441	11.3018
10.89865	463.658	11.3701
10.9049	472.596	11.4385
10.9098	476.793	11.5068
10.9156	477.322	11.5752
10.9222	479.13	11.6436
10.9264	475.535	11.7119
10.9331	472.408	11.7803
10.9401	472.6095	11.8486
10.9443	473.51	11.917
10.9504	481.201	11.9854
10.9559	493.825	12.0537
10.9626	501.616	12.12207
10.96682	507.247	12.19043
10.9722	513.108	12.2588
10.9789	515.649	12.3271
10.9845	513.006	12.3955
10.9894	511.5	12.4639
10.9962	506.673	12.5322
11.001	505.671	12.6006
11.0067	510.675	12.6689
11.013	522.038	12.7373
11.0184	528.87	12.8057
11.0249	536.0636	12.874
11.0296	545.441	12.9424
11.0354	551.106	13.0107
11.0414	547.2854	13.0791
11.0476	547.416	13.1475
11.0537	543.461	13.21582
11.0585	538.503	13.28418
11.0644	541.574	13.3525
11.0691	548.901	13.4209
11.0746	554.799	13.4893
11.0811	563.2735	13.5576
11.0868	575.437	13.626
11.0926	581.498	13.6943
11.09759	581.299	13.7627
11.1048	581.803	13.8311
11.1091	577.5954	13.8994
11.1157	572.806	13.9678
11.1207	573.804	14.0361
11.1268	578.07	14.1045
11.1324	579.913	14.1729
11.1386	588.812	14.2412
11.1443	604.724	14.30957
11.1498	611.55	14.37793
11.1551	615.491	14.4463
11.1604	617.874	14.5146
11.1667	614.401	14.583
11.1723	609.412	14.6514
11.1777	607.902	14.7197
11.183	609.2644	14.7881
11.1885	607.814	14.8564
11.1956	616.237	14.9248
11.2007	631.065	14.9932
11.2062	638.774	15.0615
11.2125	645.194	15.1299
11.21818	651.646	15.1982
11.2236	649.8313	15.2666
11.2286	645.476	15.335
11.2343	643.628	15.40332
11.2403	638.898	15.47168
11.2457	636.8	15.54
11.2521	644.116	15.6084
11.2581	656.41	15.6768
11.2633	662.858	15.7451
11.2691	672.8855	15.8135
11.2752	681.446	15.8818
11.2799	679.862	15.9502
11.2864	681.462	16.0186
11.2915	677.107	16.0869
11.2974	672.003	16.1553
11.3033	666.8125	16.2236
11.3093	672.148	16.292
11.315	680.085	16.3604
11.3201	687.729	16.4287
11.326	698.793	16.49707
11.3324	707.9	16.56543
11.3373	710.473	16.6338
11.34389	712.604	16.7021
11.3487	710.768	16.7705
11.354	702.279	16.8389
11.3594	698.532	16.9072
11.3658	701.387	16.9756
11.3715	705.385	17.0439
11.3766	711.329	17.1123
11.3825	722.218	17.1807
11.3876	731.54	17.249
11.3946	739.38	17.3174
11.4007	742.807	17.3857
11.4049	741.431	17.4541
11.4105	734.6026	17.5225
11.4181	730.564	17.59082
11.4229	729.9209	17.65918
11.4283	731.524	17.7275
11.4343	735.737	17.7959
11.4401	744.57	17.8643
11.4455	754.999	17.9326
11.45116	764.3869	18.001
11.4562	767.886	18.0693
11.4633	771.198	18.1377
11.4687	765.541	18.2061
11.4739	761.689	18.2744
11.4799	762.259	18.3428
11.4852	758.98	18.4111
11.49078	760.985	18.4795
11.4967	767.595	18.5479
11.5031	776.01	18.6162
11.5087	787.284	18.68457
11.51453	794.739	18.75293
11.52	797.4	18.8213
11.526	797.1322	18.8896
11.5305	795.357	18.958
11.5367	790.878	19.0264
11.5433	786.358	19.0947
11.5475	787.121	19.1631
11.5542	790.422	19.2314
11.5598	797.728	19.2998
11.56494	809.062	19.3682
11.56997	817.323	19.4365
11.5756	821.512	19.5049
11.5824	823.506	19.5732
11.5876	823.74	19.6416
11.594	819.927	19.71
11.5989	816.936	19.77832
11.6048	815.174	19.84668
11.6103	812.701	19.915
11.616	819.48	19.9834
11.6193	840.416	20.0127

Data Header:			0.254_solid_uprint_typei_4545_r0			Time:	40.0178	s	4/14/2019 4:29:56 AM
Data Acquisition:	Timed
Station Name:	ft40.cfg
Test File Name:	monotonic_0.2540_typei_solid_4545_uprint.tst
Displacement	Force	Running Time
mm	N	s
11.6204	828.285	20.0225
11.6259	826.349	20.09082
11.63043	826.893	20.15918
11.63719	826.33	20.2275
11.64238	829.955	20.2959
11.6482	840.2182	20.3643
11.6533	850.477	20.4326
11.6591	857.43	20.501
11.6649	861.47	20.5693
11.6705	860.14	20.6377
11.6763	857.642	20.7061
11.683	854.772	20.7744
11.6872	851.956	20.8428
11.6935	848.1427	20.9111
11.6999	853.389	20.9795
11.70501	859.012	21.0479
11.71011	867.4834	21.1162
11.7169	875.746	21.18457
11.7228	881.6936	21.25293
11.7289	883.342	21.3213
11.7346	882.04	21.3896
11.7398	880.548	21.458
11.7448	875.942	21.5264
11.75098	874.34	21.5947
11.7561	875.004	21.6631
11.7619	877.491	21.7314
11.7682	886.781	21.7998
11.7727	895.304	21.8682
11.7789	902.346	21.9365
11.7849	905.177	22.0049
11.7909	907.072	22.0732
11.7965	908.31	22.1416
11.8017	902.725	22.21
11.807	898.818	22.27832
11.8123	896.23	22.34668
11.8189	897.218	22.415
11.825	902.8172	22.4834
11.8304	911.551	22.5518
11.8363	917.085	22.6201
11.84204	923.929	22.6885
11.8477	929.3775	22.7568
11.8532	928.803	22.8252
11.8583	924.671	22.8936
11.8643	922.663	22.9619
11.87	916.35	23.0303
11.8754	917.805	23.0986
11.8808	921.348	23.167
11.8874	926.9	23.2354
11.89383	931.438	23.3037
11.8986	939.106	23.37207
11.9044	948.566	23.44043
11.9109	949.1261	23.5088
11.9153	945.758	23.5771
11.92201	944.114	23.6455
11.9274	938.473	23.7139
11.9327	935.515	23.7822
11.9386	939.006	23.8506
11.9444	939.478	23.9189
11.9504	943.159	23.9873
11.9557	954.117	24.0557
11.96125	964.857	24.124
11.9676	964.962	24.1924
11.9726	967.26	24.2607
11.9789	965.191	24.3291
11.9845	958.143	24.3975
11.9894	957.056	24.46582
11.9951	954.412	24.53418
12.0012	954.784	24.6025
12.0069	955.386	24.6709
12.0123	966.4	24.7393
12.0176	977.399	24.8076
12.0252	978.725	24.876
12.0288	982.786	24.9443
12.0358	984.941	25.0127
12.041	977.117	25.0811
12.0473	972.811	25.1494
12.0525	972.107	25.2178
12.0578	966.759	25.2861
12.06429	967.135	25.3545
12.0695	977.784	25.4229
12.0751	985.466	25.4912
12.0811	989.326	25.55957
12.08609	996.449	25.62793
12.0915	998.7038	25.6963
12.0979	994.268	25.7646
12.1042	990.559	25.833
12.1086	986.43	25.9014
12.1151	980.696	25.9697
12.12073	979.719	26.0381
12.126	987.34	26.1064
12.1324	994.074	26.1748
12.138	998.361	26.2432
12.14278	1006.77	26.3115
12.1486	1009.72	26.3799
12.1553	1009.44	26.4482
12.1603	1007.41	26.5166
12.1667	1002.29	26.585
12.1704	994.268	26.65332
12.178	991.2403	26.72168
12.184	996.307	26.79
12.1888	1000.48	26.8584
12.1953	1005.58	26.9268
12.2003	1015.43	26.9951
12.205	1018.86	27.0635
12.21304	1020.34	27.1318
12.21767	1018.95	27.2002
12.2237	1014.12	27.2686
12.2294	1006.624	27.3369
12.2343	1003.93	27.4053
12.241	1006.13	27.4736
12.2454	1006.57	27.542
12.2515	1009.22	27.6104
12.2574	1018.59	27.6787
12.2643	1024.23	27.74707
12.2688	1028.59	27.81543
12.2753	1029.87	27.8838
12.2803	1026.8	27.9521
12.286	1018.24	28.0205
12.2914	1016.34	28.0889
12.2969	1014.43	28.1572
12.3015	1012.22	28.2256
12.3077	1013.82	28.2939
12.3147	1021.19	28.3623
12.3198	1029.35	28.4307
12.32612	1034.18	28.499
12.3315	1036.06	28.5674
12.3366	1033.01	28.6357
12.3424	1029.26	28.7041
12.3486	1024.943	28.7725
12.3542	1018.56	28.84082
12.3601	1018.46	28.90918
12.3651	1019.27	28.9775
12.371	1022.6	29.0459
12.37661	1029.85	29.1143
12.3825	1035.6	29.1826
12.3878	1039.61	29.251
12.3947	1039.27	29.3193
12.3991	1039.16	29.3877
12.4047	1035.98	29.4561
12.4107	1027.575	29.5244
12.4166	1025.64	29.5928
12.422	1023.67	29.6611
12.4285	1025.1	29.7295
12.4338	1032.34	29.7979
12.4389	1038.71	29.8662
12.4448	1040.33	29.93457
12.4509	1043.58	30.00293
12.4558	1044.33	30.0713
12.4628	1044.14	30.1396
12.468	1035.74	30.208
12.4738	1031.65	30.2764
12.4787	1028.3	30.3447
12.4856	1026.07	30.4131
12.4912	1033.8	30.4814
12.4962	1037.006	30.5498
12.5011	1038.11	30.6182
12.50728	1043.82	30.6865
12.5126	1051.3	30.7549
12.51872	1047.82	30.8232
12.5248	1041.97	30.8916
12.53093	1038.926	30.96
12.5368	1032.42	31.02832
12.5418	1032.17	31.09668
12.5483	1033.333	31.165
12.5537	1035.93	31.2334
12.55888	1037.69	31.3018
12.5645	1044.15	31.3701
12.5701	1052.4	31.4385
12.57643	1049.55	31.5068
12.5808	1048.02	31.5752
12.5869	1044.36	31.6436
12.5927	1037.007	31.7119
12.598	1033.1	31.7803
12.6044	1034.56	31.8486
12.6101	1033.53	31.917
12.6163	1033.6	31.9854
12.621	1042.44	32.0537
12.6276	1051.87	32.12207
12.6337	1050.32	32.19043
12.6386	1052.48	32.2588
12.6442	1050.57	32.3271
12.6507	1041.51	32.3955
12.6562	1038.42	32.4639
12.6617	1035.74	32.5322
12.6671	1030.98	32.6006
12.6719	1031.56	32.6689
12.6797	1040.1	32.7373
12.6835	1047.45	32.8057
12.6902	1049.962	32.874
12.6952	1052.72	32.9424
12.7014	1052.4	33.0107
12.707	1048.03	33.0791
12.7124	1041.36	33.1475
12.7193	1039.18	33.21582
12.7239	1032.338	33.28418
12.7298	1031.12	33.3525
12.7361	1040.95	33.4209
12.7411	1044.62	33.4893
12.7474	1048.51	33.5576
12.7517	1054.21	33.626
12.7579	1054.41	33.6943
12.7632	1050.619	33.7627
12.7705	1047.13	33.8311
12.7749	1042.08	33.8994
12.7805	1034.02	33.9678
12.7868	1032.374	34.0361
12.7921	1038.3	34.1045
12.7986	1041.2	34.1729
12.8036	1044.93	34.2412
12.8088	1052.8	34.30957
12.8151	1054.61	34.37793
12.8212	1053.87	34.4463
12.8258	1052.9	34.5146
12.8329	1045.18	34.583
12.838	1037.97	34.6514
12.843	1035.25	34.7197
12.8495	1037.91	34.7881
12.8553	1037.8	34.8564
12.8609	1044.42	34.9248
12.8668	1048.87	34.9932
12.8719	1053.86	35.0615
12.8773	1056.45	35.1299
12.884	1052.696	35.1982
12.8895	1048.03	35.2666
12.895	1040.76	35.335
12.90119	1038.035	35.40332
12.9068	1036.07	35.47168
12.9115	1036.53	35.54
12.9177	1039.35	35.6084
12.9233	1044.61	35.6768
12.9292	1051.9	35.7451
12.9348	1055.7	35.8135
12.9411	1056.34	35.8818
12.9468	1050.64	35.9502
12.9517	1047.201	36.0186
12.95675	1043.234	36.0869
12.9634	1039.198	36.1553
12.9688	1035.83	36.2236
12.9753	1038.14	36.292
12.9795	1043.095	36.3604
12.9863	1049.19	36.4287
12.9915	1054.97	36.49707
12.9972	1055.08	36.56543
13.0026	1054.28	36.6338
13.0083	1050.68	36.7021
13.0129	1047.37	36.7705
13.01947	1041.27	36.8389
13.02569	1038.1	36.9072
13.0315	1038.3	36.9756
13.0376	1038.98	37.0439
13.043	1046.52	37.1123
13.0483	1052.04	37.1807
13.0541	1052.79	37.249
13.0598	1054.22	37.3174
13.0649	1055.36	37.3857
13.0711	1050.52	37.4541
13.0763	1043.94	37.5225
13.0823	1040.86	37.59082
13.0885	1037.82	37.65918
13.0944	1036.69	37.7275
13.0989	1042.79	37.7959
13.106	1048.17	37.8643
13.1116	1049.31	37.9326
13.1173	1052.61	38.001
13.1225	1057.752	38.0693
13.1284	1054.75	38.1377
13.1341	1047.98	38.2061
13.1393	1043.83	38.2744
13.14583	1037.39	38.3428
13.1499	1037.23	38.4111
13.1571	1039.69	38.4795
13.16177	1043.96	38.5479
13.1676	1045.54	38.6162
13.1734	1051.89	38.68457
13.1803	1058.061	38.75293
13.185	1054.96	38.8213
13.1908	1049.582	38.8896
13.1973	1047.56	38.958
13.202	1040.29	39.0264
13.2082	1038.02	39.0947
13.2148	1038.78	39.1631
13.2204	1040.22	39.2314
13.2244	1040.73	39.2998
13.2308	1050.4	39.3682
13.2365	1056.54	39.4365
13.2421	1055.36	39.5049
13.2481	1053.68	39.5732
13.2538	1052.069	39.6416
13.2592	1042.94	39.71
13.265	1038.9	39.77832
13.2706	1038.21	39.84668
13.2763	1036.93	39.915
13.2823	1038.33	39.9834
13.2843	1053.52	40.0127

Data Header:			0.254_solid_uprint_typei_4545_r0			Time:	60.0178	s	4/14/2019 4:30:16 AM
Data Acquisition:	Timed
Station Name:	ft40.cfg
Test File Name:	monotonic_0.2540_typei_solid_4545_uprint.tst
Displacement	Force	Running Time
mm	N	s
13.2852	1043.21	40.0225
13.2909	1039.79	40.09082
13.2961	1035.94	40.15918
13.3039	1039.4	40.2275
13.30871	1043.16	40.2959
13.3135	1045.57	40.3643
13.3204	1048.6	40.4326
13.3252	1053.38	40.501
13.33132	1056.11	40.5693
13.336	1049.86	40.6377
13.3425	1047.92	40.7061
13.34893	1042.31	40.7744
13.3546	1037.62	40.8428
13.3593	1037.33	40.9111
13.3653	1039.94	40.9795
13.3705	1042.23	41.0479
13.3764	1044.84	41.1162
13.3827	1054.73	41.18457
13.3878	1056.27	41.25293
13.3931	1053.12	41.3213
13.4001	1050.71	41.3896
13.4039	1045.47	41.458
13.4108	1038.38	41.5264
13.41649	1036.668	41.5947
13.4221	1039.13	41.6631
13.4279	1037.73	41.7314
13.4333	1041.9	41.7998
13.4398	1052.01	41.8682
13.445	1055.325	41.9365
13.44967	1053.61	42.0049
13.4567	1054.8	42.0732
13.4625	1049.39	42.1416
13.4679	1042.58	42.21
13.4733	1040.52	42.27832
13.4788	1038.488	42.34668
13.4835	1034.21	42.415
13.4898	1039.03	42.4834
13.4956	1048.42	42.5518
13.502	1050.32	42.6201
13.5068	1053.82	42.6885
13.5125	1054.95	42.7568
13.518	1049.537	42.8252
13.52527	1046.93	42.8936
13.5309	1042.15	42.9619
13.53625	1037.97	43.0303
13.5418	1032.23	43.0986
13.5486	1037.08	43.167
13.5532	1044.62	43.2354
13.5587	1047.57	43.3037
13.564	1050.71	43.37207
13.5698	1056.86	43.44043
13.5753	1053.07	43.5088
13.5814	1049.31	43.5771
13.5873	1044.39	43.6455
13.5937	1039.07	43.7139
13.5985	1032.13	43.7822
13.60397	1036.99	43.8506
13.6093	1040.59	43.9189
13.6161	1043.52	43.9873
13.62174	1048.82	44.0557
13.6263	1053.74	44.124
13.6326	1054.76	44.1924
13.6377	1052.57	44.2607
13.6437	1050.94	44.3291
13.6502	1040.81	44.3975
13.6562	1034.18	44.46582
13.6617	1036.91	44.53418
13.6664	1036.19	44.6025
13.6729	1038.994	44.6709
13.6785	1046.14	44.7393
13.6843	1050.97	44.8076
13.69028	1054.52	44.876
13.6962	1054.12	44.9443
13.70168	1050.47	45.0127
13.7071	1043.67	45.0811
13.7127	1038.6	45.1494
13.7182	1038.11	45.2178
13.7241	1035.53	45.2861
13.7304	1035.79	45.3545
13.7356	1041.662	45.4229
13.741	1046.04	45.4912
13.7461	1052.94	45.55957
13.752	1053.92	45.62793
13.7575	1050.65	45.6963
13.7638	1046.52	45.7646
13.7698	1042.95	45.833
13.77446	1039.64	45.9014
13.782	1036.09	45.9697
13.7866	1035.03	46.0381
13.7919	1038.08	46.1064
13.79828	1043.37	46.1748
13.8036	1048.79	46.2432
13.80911	1052.6	46.3115
13.8137	1052.3	46.3799
13.8204	1049.55	46.4482
13.8261	1047.92	46.5166
13.8325	1041.84	46.585
13.8381	1036.81	46.65332
13.8427	1033.95	46.72168
13.8488	1033.91	46.79
13.8551	1041.64	46.8584
13.8613	1046.11	46.9268
[...]
15.8228	1029.05	70.4814
15.8299	1033.59	70.5498
15.8346	1040.08	70.6182
15.8404	1042.5	70.6865
15.8457	1042.97	70.7549
15.8519	1041.48	70.8232
15.8573	1038.41	70.8916
15.8628	1032.83	70.96
15.8694	1027.1	71.02832
15.8744	1024.4	71.09668
15.8801	1027.95	71.165
15.8864	1032.06	71.2334
15.89212	1036.24	71.3018
15.897	1038.88	71.3701
15.903	1041.99	71.4385
15.9095	1043.99	71.5068
15.9149	1038.72	71.5752
15.9192	1034.36	71.6436
15.9267	1031.22	71.7119
15.9334	1027.21	71.7803
15.938	1026.89	71.8486
15.9424	1028.55	71.917
15.9485	1032.82	71.9854
15.9545	1034.31	72.0537
15.9603	1041.55	72.12207
15.9653	1042.77	72.19043
15.9708	1040.61	72.2588
15.9775	1036.85	72.3271
15.9823	1032.96	72.3955
15.9889	1026.79	72.4639
15.994	1026.84	72.5322
15.9998	1026.79	72.6006
16.0055	1027.26	72.6689
16.01363	1032.3	72.7373
16.0169	1039.47	72.8057
16.0224	1041.05	72.874
16.0276	1042.79	72.9424
16.0346	1040.981	73.0107
16.0393	1035.1	73.0791
16.0462	1029.54	73.1475
16.051	1027.3	73.21582
16.056	1027.06	73.28418
16.0625	1023.69	73.3525
16.0678	1027.06	73.4209
16.074	1036.481	73.4893
16.0795	1039.74	73.5576
16.0863	1040.58	73.626
16.0902	1044.09	73.6943
16.097	1037.94	73.7627
16.1018	1034.15	73.8311
16.1081	1032.04	73.8994
16.1147	1027.23	73.9678
16.1199	1023.34	74.0361
16.125	1025.07	74.1045
16.1315	1034.41	74.1729
16.1371	1035.58	74.2412
16.1422	1040.1	74.30957
16.1471	1044.08	74.37793
16.15307	1037.795	74.4463
16.1599	1036.91	74.5146
16.1643	1035.35	74.583
16.1707	1025.79	74.6514
16.1764	1021.86	74.7197
16.182	1024.2	74.7881
16.1878	1029.24	74.8564
16.1931	1029.81	74.9248
16.20002	1036.79	74.9932
16.2043	1041.604	75.0615
16.2101	1040.79	75.1299
16.2164	1039.1	75.1982
16.2224	1037.39	75.2666
16.2283	1027.44	75.335
16.2335	1022.32	75.40332
16.2382	1026.54	75.47168
16.2459	1026.67	75.54
16.2501	1027.43	75.6084
16.256	1034.4	75.6768
16.2619	1038.984	75.7451
16.2671	1040.02	75.8135
16.2734	1040.76	75.8818
16.2795	1039.89	75.9502
16.285	1030.59	76.0186
16.2903	1026.09	76.0869
16.2959	1027.73	76.1553
16.3006	1023.89	76.2236
16.307	1024.74	76.292
16.3132	1032.52	76.3604
16.31978	1035.77	76.4287
16.3243	1039.38	76.49707
16.3301	1041.89	76.56543
16.3359	1039.49	76.6338
16.3422	1031.7	76.7021
16.3486	1028.4	76.7705
16.3532	1027.77	76.8389
16.3581	1022.798	76.9072
16.3651	1023.41	76.9756
16.3699	1026.62	77.0439
16.3759	1032.27	77.1123
16.3824	1035.43	77.1807
16.3882	1040.7	77.249
16.3925	1038.87	77.3174
16.3987	1035.3	77.3857
16.4041	1033.14	77.4541
16.4098	1030.26	77.5225
16.4163	1023.174	77.59082
16.4205	1022.05	77.65918
16.4271	1024.004	77.7275
16.4327	1028.96	77.7959
16.4385	1031.54	77.8643
16.4448	1037.59	77.9326
16.4492	1038.18	78.001
16.4549	1035.31	78.0693
16.4624	1035.85	78.1377
16.4666	1031.1	78.2061
16.473	1025.82	78.2744
16.47901	1023.38	78.3428
16.4841	1020.12	78.4111
16.4898	1024.36	78.4795
16.4958	1029.05	78.5479
16.5013	1034.18	78.6162
16.5071	1036.129	78.68457
16.5127	1038.06	78.75293
16.5189	1037.9	78.8213
16.5238	1033.06	78.8896
16.5287	1028.6	78.958
16.5352	1023.12	79.0264
16.54188	1021.87	79.0947
16.5467	1021.856	79.1631
16.5519	1024.98	79.2314
16.5577	1028.309	79.2998
16.56398	1031.93	79.3682
16.5698	1037.84	79.4365
16.5755	1037.44	79.5049
16.5811	1034.03	79.5732
16.58707	1029.74	79.6416
16.592	1023.54	79.71
16.5983	1022.95	79.77832
16.6033	1021.15	79.84668
16.6095	1021.06	79.915
16.6154	1023.4	79.9834
16.61758	1033.07	80.0127

Data Header:			0.254_solid_uprint_typei_4545_r0			Time:	83.9773	s	4/14/2019 4:30:40 AM
Data Acquisition:	Timed
Station Name:	ft40.cfg
Test File Name:	monotonic_0.2540_typei_solid_4545_uprint.tst
Displacement	Force	Running Time
mm	N	s
16.6175	1024.01	80.0225
16.6199	1020.44	80.042
16.6215	1035.6	80.0615
16.624	1030.35	80.0811
16.6252	1017.4	80.1006
16.6275	1033.92	80.1201
16.6286	1030.8	80.1396
16.6296	1020.149	80.15918
16.63109	1032.52	80.1787
16.6331	1036.26	80.1982
16.63435	1015.54	80.2178
16.63529	1028.02	80.2373
16.6374	1036.03	80.2568
16.6393	1022.56	80.2764
16.641	1024.47	80.2959
16.6432	1036.22	80.31543
16.6447	1022.82	80.335
16.6463	1022.09	80.3545
16.6474	1034.84	80.374
16.649	1024.73	80.3936
16.6513	1020.58	80.4131
16.6526	1029.66	80.4326
16.6546	1029.51	80.4521
16.6555	1016.83	80.47168
16.6569	1027.3	80.4912
16.6586	1031.47	80.5107
16.6595	1018.85	80.5303
16.6628	1022.08	80.5498
16.6634	1032.905	80.5693
16.6653	1019.81	80.5889
16.6692	1021.18	80.6084
16.6679	1033.56	80.62793
16.6706	1022.46	80.6475
16.6725	1014.578	80.667
16.6738	1033.13	80.6865
16.67531	1021.74	80.7061
16.6773	1014.966	80.7256
16.6779	1026.2	80.7451
16.6865	-79.4591	80.7646
16.6869	-51.7922	80.78418
16.6867	-31.10206	80.8037
16.6879	-29.5572	80.8232
16.6886	-47.8786	80.8428
16.6907	-39.2033	80.8623
16.6918	-28.1774	80.8818
16.6927	-49.167	80.9014
16.6942	-44.6979	80.9209
16.697	-29.5847	80.94043
16.6978	-41.806	80.96
16.6994	-48.21645	80.9795
16.7001	-32.5202	80.999
16.7033	-37.8267	81.0186
16.7042	-49.5837	81.0381
16.7052	-34.7206	81.0576
16.7059	-34.6438	81.0771
16.7091	-49.1757	81.09668
16.7107	-38.25705	81.1162
16.7115	-31.3448	81.1357
16.7135	-51.0229	81.1553
16.715	-41.7768	81.1748
16.717	-29.0228	81.1943
16.7172	-42.5889	81.2139
16.7198	-48.4822	81.2334
16.7221	-28.50256	81.25293
16.72278	-41.8552	81.2725
16.725	-46.5866	81.292
16.7274	-32.1923	81.3115
16.7275	-38.7678	81.3311
16.7292	-51.3725	81.3506
16.7308	-31.7057	81.3701
16.7334	-36.8843	81.3896
16.7341	-49.4701	81.40918
16.7365	-35.9224	81.4287
16.7376	-32.7103	81.4482
16.7385	-48.6936	81.4678
16.7412	-42.278	81.4873
16.7428	-33.7335	81.5068
16.7439	-47.1245	81.5264
16.7456	-42.7718	81.5459
16.7474	-33.4331	81.56543
16.7494	-44.3512	81.585
16.7508	-47.24815	81.6045
16.7521	-32.6844	81.624
16.7531	-40.8378	81.6436
16.7552	-49.7117	81.6631
16.7571	-36.7681	81.6826
16.7604	-34.4415	81.7021
16.7609	-49.3481	81.72168
16.7613	-38.3544	81.7412
16.7634	-35.13921	81.7607
16.7652	-46.4341	81.7803
16.7681	-41.7687	81.7998
16.7685	-29.2923	81.8193
16.77006	-48.0292	81.8389
16.77042	-43.36375	81.8584
16.7731	-29.1376	81.87793
16.77478	-41.9226	81.8975
16.7755	-50.1735	81.917
16.77877	-32.4594	81.9365
16.7795	-40.7066	81.9561
16.782	-48.4458	81.9756
16.7825	-34.9843	81.9951
16.7844	-36.9065	82.0146
16.7869	-51.0778	82.03418
16.7879	-37.6145	82.0537
16.7898	-34.2951	82.0732
16.7913	-49.9853	82.0928
16.7931	-41.6903	82.1123
16.7947	-31.88084	82.1318
16.7967	-47.3658	82.1514
16.7974	-44.5949	82.1709
16.7997	-33.848	82.19043
16.8004	-43.5391	82.21
16.8025	-42.731	82.2295
16.8044	-34.72419	82.249
16.8066	-40.4182	82.2686
16.8074	-49.2841	82.2881
16.8088	-34.8648	82.3076
16.81	-37.23159	82.3271
16.8125	-50.0993	82.34668
16.8126	-41.4701	82.3662
16.8164	-32.0463	82.3857
16.8167	-48.9694	82.4053
16.8194	-41.5559	82.4248
16.82058	-32.8037	82.4443
16.8222	-45.4265	82.4639
16.8232	-45.161	82.4834
16.8261	-30.0602	82.50293
16.8266	-46.1888	82.5225
16.8284	-47.4195	82.542
16.8296	-31.7181	82.5615
16.8315	-38.6719	82.5811
16.833	-51.3155	82.6006
16.8342	-34.5722	82.6201
16.8358	-38.0434	82.6396
16.8377	-48.4705	82.65918
16.8396	-37.769	82.6787
16.8412	-37.6664	82.6982
16.8439	-49.6893	82.7178
16.8447	-40.9441	82.7373
16.846	-32.66917	82.7568
16.8482	-47.1409	82.7764
16.8499	-43.254	82.7959
16.8521	-34.6148	82.81543
16.8528	-43.6428	82.835
16.8537	-47.2037	82.8545
16.8571	-34.11808	82.874
16.8582	-40.9153	82.8936
16.8591	-44.8863	82.9131
16.8612	-37.5019	82.9326
16.86314	-37.0287	82.9521
16.86462	-50.3474	82.97168
16.8673	-37.8328	82.9912
16.8678	-34.0097	83.0107
16.8696	-48.1177	83.0303
16.8705	-44.9848	83.0498
16.8722	-32.2444	83.0693
16.8748	-47.5052	83.0889
16.8761	-44.4862	83.1084
16.8768	-32.8153	83.12793
16.8798	-42.8185	83.1475
16.8801	-47.69434	83.167
16.8821	-33.3281	83.1865
16.8839	-43.2258	83.2061
16.8853	-50.949	83.2256
16.8872	-34.2056	83.2451
16.8887	-38.8586	83.2646
16.8904	-51.9403	83.28418
16.8918	-38.4214	83.3037
16.893	-35.4915	83.3232
16.8944	-49.6336	83.3428
16.8963	-40.9954	83.3623
16.898	-36.0501	83.3818
16.9004	-47.2412	83.4014
16.90173	-45.1805	83.4209
16.9036	-32.1286	83.44043
16.9049	-44.9604	83.46
16.9071	-46.0444	83.4795
16.90884	-35.537	83.499
16.9105	-40.6767	83.5186
16.912	-50.3592	83.5381
16.9134	-35.1599	83.5576
16.9146	-36.9108	83.5771
16.9163	-47.3994	83.59668
16.9179	-42.0407	83.6162
16.9201	-34.6723	83.6357
16.9211	-50.2091	83.6553
16.9235	-41.4749	83.6748
16.9247	-32.3094	83.6943
16.92647	-46.2812	83.7139
16.9279	-47.6997	83.7334
16.9291	-31.23094	83.75293
16.9322	-44.5857	83.7725
16.9327	-47.6274	83.792
16.9336	-34.9698	83.8115
16.9357	-42.2324	83.8311
16.9374	-49.407	83.8506
16.9402	-35.9875	83.8701
16.941	-37.911	83.8896
16.9418	-49.8844	83.90918
16.9436	-37.5267	83.9287
16.94578	-36.7599	83.9482
16.94747	-49.7231	83.9678