File: data/processed_data_files/tensile/0.254_hd_uprint_typei_4545_r(2).dat
MTS793|BTW|ENU|1|2|.|/|:|1|0|0|A

Data Header:			0.254_hd_uprint_typei_4545_r0			Time:	20.021	s	4/15/2019 4:05:40 PM
Data Acquisition:	Timed
Station Name:	ft40.cfg
Test File Name:	monotonic_0.2540_typei_hd_4545_uprint.tst
Displacement	Force	Running Time
mm	N	s
9.98	-132.309	0.0244141
9.98212	-127.8594	0.0927734
9.987	-128.937	0.161133
9.99315	-124.934	0.229492
9.99905	-119.1972	0.297852
10.0041	-116.998	0.366211
10.0102	-114.365	0.43457
10.0164	-112.813	0.50293
10.0214	-114.821	0.571289
10.0264	-117.154	0.639648
10.0328	-115.854	0.708008
10.0386	-112.047	0.776367
10.0438	-110.999	0.844727
10.0498	-107.544	0.913086
10.0556	-101.5385	0.981445
10.0612	-97.6573	1.0498
10.067	-95.492	1.11816
10.072	-90.7448	1.18652
10.0782	-90.4196	1.25488
10.0833	-93.6302	1.32324
10.089	-91.5841	1.3916
10.0948	-89.8898	1.45996
10.1015	-90.9242	1.52832
10.1068	-85.8198	1.59668
10.11296	-82.89505	1.66504
10.1189	-76.67141	1.7334
10.1245	-72.1409	1.80176
10.13039	-69.6951	1.87012
10.1362	-69.4533	1.93848
10.14204	-70.8057	2.00684
10.14742	-67.2106	2.0752
10.1522	-66.7072	2.14355
10.15868	-66.422	2.21191
10.16339	-64.7088	2.28027
10.1696	-62.183	2.34863
10.175	-55.7871	2.41699
10.1807	-48.3898	2.48535
10.18641	-46.3712	2.55371
10.193	-46.4483	2.62207
10.1971	-42.3566	2.69043
10.20379	-39.791	2.75879
10.2095	-42.9889	2.82715
10.2148	-41.4514	2.89551
10.2214	-38.6875	2.96387
10.2258	-37.7684	3.03223
10.23253	-32.9469	3.10059
10.23841	-25.1287	3.16895
10.2438	-22.8473	3.2373
10.2488	-22.2094	3.30566
10.2545	-17.4815	3.37402
10.2606	-13.3373	3.44238
10.2665	-15.4989	3.51074
10.273	-14.3479	3.5791
10.2782	-12.1225	3.64746
10.2839	-13.1734	3.71582
10.2893	-8.48195	3.78418
10.2945	-1.20537	3.85254
10.3001	2.19789	3.9209
10.3056	4.17693	3.98926
10.3125	8.84753	4.05762
10.3179	14.5827	4.12598
10.3236	13.1591	4.19434
10.3298	13.4122	4.2627
10.3355	16.707	4.33105
10.34	13.887	4.39941
10.3466	16.4535	4.46777
10.3516	24.4962	4.53613
10.3574	28.2339	4.60449
10.3624	30.1581	4.67285
10.368	37.0271	4.74121
10.37454	44.1877	4.80957
10.3806	42.1422	4.87793
10.3858	42.5881	4.94629
10.3924	45.9238	5.01465
10.397	43.2656	5.08301
10.4026	45.8732	5.15137
10.4086	50.5808	5.21973
10.414	53.8196	5.28809
10.4193	54.9637	5.35645
10.4249	63.7894	5.4248
10.4307	69.7382	5.49316
10.4375	70.6778	5.56152
10.4419	71.994	5.62988
10.4486	73.513	5.69824
10.4542	72.5422	5.7666
10.4595	75.2784	5.83496
10.4648	77.023	5.90332
10.47177	79.3672	5.97168
10.4759	82.9066	6.04004
10.4826	90.7113	6.1084
10.4883	97.9319	6.17676
10.4947	98.9274	6.24512
10.5004	103.146	6.31348
10.5054	103.144	6.38184
10.5108	103.785	6.4502
10.517	104.457	6.51855
10.5223	106.963	6.58691
10.5283	105.224	6.65527
10.5339	110.571	6.72363
10.53956	117.929	6.79199
10.5459	122.3336	6.86035
10.5513	127.148	6.92871
10.5571	131.4565	6.99707
10.5616	132.324	7.06543
10.5691	133.533	7.13379
10.5741	134.255	7.20215
10.5797	134.129	7.27051
10.5855	133.06	7.33887
10.5909	136.81	7.40723
10.5969	146.279	7.47559
10.6024	148.644	7.54395
10.6088	152.763	7.6123
10.6134	158.932	7.68066
10.619	160.688	7.74902
10.6249	162.5285	7.81738
10.6304	165.241	7.88574
10.6363	162.793	7.9541
10.6424	161.1636	8.02246
10.6474	165.576	8.09082
10.6535	171.78	8.15918
10.6591	174.546	8.22754
10.665	179.474	8.2959
10.6717	187.694	8.36426
10.6758	189.406	8.43262
10.6814	191.642	8.50098
10.6883	195.486	8.56934
10.6932	195.192	8.6377
10.6984	190.75	8.70605
10.7038	193.121	8.77441
10.7097	200.195	8.84277
10.7162	202.308	8.91113
10.722	206.018	8.97949
10.7271	213.629	9.04785
10.734	217.698	9.11621
10.7395	220.959	9.18457
10.7448	224.4783	9.25293
10.7509	223.705	9.32129
10.7558	219.572	9.38965
10.7619	223.92	9.45801
10.7683	228.73	9.52637
10.7731	229.332	9.59473
10.7787	233.734	9.66309
10.7849	241.37	9.73145
10.7898	244.6722	9.7998
10.7948	250.442	9.86816
10.8016	253.1086	9.93652
10.80756	252.673	10.0049
10.8131	251.47	10.0732
10.8177	253.5	10.1416
10.8241	256.392	10.21
10.8292	257.065	10.27832
10.8358	259.219	10.34668
10.8421	268.298	10.415
10.8476	271.67	10.4834
10.8526	278.289	10.5518
10.8593	281.591	10.6201
10.8639	282.919	10.6885
10.8705	280.599	10.7568
10.8754	283.876	10.8252
10.8822	283.926	10.8936
10.887	286.294	10.9619
10.89195	288.404	11.0303
10.897	290.991	11.0986
10.9047	298.149	11.167
10.9098	304.32	11.2354
10.9162	309.052	11.3037
10.9222	309.005	11.37207
10.9276	311.631	11.44043
10.9326	315.657	11.5088
10.9379	314.43	11.5771
10.9439	313.201	11.6455
10.9504	317.351	11.7139
10.95559	318.474	11.7822
10.9616	323.901	11.8506
10.9673	330.78	11.9189
10.9726	334.34	11.9873
10.9786	335.738	12.0557
10.9841	339.077	12.124
10.9892	345.018	12.1924
10.9953	343.398	12.2607
11.0009	341.358	12.3291
11.0068	345.325	12.3975
11.0131	344.118	12.46582
11.01769	348.915	12.53418
11.0237	355.973	12.6025
11.0291	360.6322	12.6709
11.0344	361.346	12.7393
11.04187	366.486	12.8076
11.04586	372.545	12.876
11.0522	370.215	12.9443
11.0574	370.652	13.0127
11.0642	371.329	13.0811
11.069	373.173	13.1494
11.0753	374.553	13.2178
11.0792	380.481	13.2861
11.0855	387.285	13.3545
11.0925	386.261	13.4229
11.0981	393.343	13.4912
11.1044	400.112	13.55957
11.1088	402.125	13.62793
11.1141	397.902	13.6963
11.1212	400.566	13.7646
11.127	401.44	13.833
11.1319	401.425	13.9014
11.13783	406.706	13.9697
11.1432	409.971	14.0381
11.1489	411.61	14.1064
11.1553	419.62	14.1748
11.1599	427.384	14.2432
11.1663	426.5383	14.3115
11.1718	427.764	14.3799
11.17891	428.7467	14.4482
11.1836	427.253	14.5166
11.18974	430.956	14.585
11.1946	432.818	14.65332
11.2021	433.282	14.72168
11.2053	436.689	14.79
11.2111	444.818	14.8584
11.2175	451.502	14.9268
11.2234	453.782	14.9951
11.2286	456.391	15.0635
11.2353	456.02	15.1318
11.2399	455.163	15.2002
11.2458	456.204	15.2686
11.2518	457.813	15.3369
11.2568	457.2077	15.4053
11.2631	459.384	15.4736
11.2685	469.489	15.542
11.2753	474.635	15.6104
11.2803	479.123	15.6787
11.2851	482.511	15.74707
11.2909	482.88	15.81543
11.29703	483.89	15.8838
11.3024	486.15	15.9521
11.3093	483.337	16.0205
11.3145	481.182	16.0889
11.3192	484.336	16.1572
11.3256	494.097	16.2256
11.331	499.034	16.2939
11.336	501.814	16.3623
11.34306	508.412	16.4307
11.3482	510.009	16.499
11.3543	508.776	16.5674
11.3597	511.054	16.6357
11.3651	512.012	16.7041
11.3716	507.116	16.7725
11.3776	508.467	16.84082
11.3834	517.321	16.90918
11.3873	520.599	16.9775
11.3941	523.751	17.0459
11.4002	532.225	17.1143
11.4053	534.073	17.1826
11.41108	535.675	17.251
11.41711	537.706	17.3193
11.4231	535.966	17.3877
11.4276	530.5434	17.4561
11.4328	533.462	17.5244
11.44005	540.399	17.5928
11.44551	543.153	17.6611
11.4508	547.091	17.7295
11.4569	554.448	17.7979
11.4629	557.5144	17.8662
11.4682	561.331	17.93457
11.4736	561.627	18.00293
11.4794	562.349	18.0713
11.4842	557.225	18.1396
11.4909	557.49	18.208
11.4962	564.568	18.2764
11.502	564.038	18.3447
11.5068	568.125	18.4131
11.5135	574.993	18.4814
11.5195	578.373	18.5498
11.5248	583.922	18.6182
11.5302	585.0094	18.6865
11.537	583.437	18.7549
11.5425	582.477	18.8232
11.5468	582.8	18.8916
11.5542	585.0473	18.96
11.559	586.329	19.02832
11.5644	589.041	19.09668
11.5707	594.162	19.165
11.5766	599.561	19.2334
11.5821	606.8103	19.3018
11.5875	608.321	19.3701
11.5938	607.351	19.4385
11.5993	607.773	19.5068
11.6052	609.478	19.5752
11.6104	609.44	19.6436
11.6161	608.596	19.7119
11.6214	612.193	19.7803
11.6267	616.089	19.8486
11.6334	618.139	19.917
11.6388	626.703	19.9854
11.6412	622.22	20.0146

Data Header:			0.254_hd_uprint_typei_4545_r0			Time:	40.0198	s	4/15/2019 4:06:00 PM
Data Acquisition:	Timed
Station Name:	ft40.cfg
Test File Name:	monotonic_0.2540_typei_hd_4545_uprint.tst
Displacement	Force	Running Time
mm	N	s
11.6419	614.388	20.0244
11.6476	622.605	20.0928
11.653	625.929	20.1611
11.6592	629.461	20.2295
11.6655	635.354	20.2979
11.6713	639.39	20.3662
11.6752	643.395	20.43457
11.68183	643.145	20.50293
11.6874	642.944	20.5713
11.694	640.346	20.6396
11.6989	639.2085	20.708
11.7043	644.0069	20.7764
11.7115	645.261	20.8447
11.7167	650.082	20.9131
11.7227	656.2475	20.9814
11.7269	659.5614	21.0498
11.7331	664.545	21.1182
11.7396	666.048	21.1865
11.7445	664.706	21.2549
11.7509	662.837	21.3232
11.7558	661.909	21.3916
11.7623	664.682	21.46
11.76806	664.6842	21.52832
11.7728	669.573	21.59668
11.7785	673.927	21.665
11.7855	677.572	21.7334
11.7907	682.4679	21.8018
11.7961	686.865	21.8701
11.8007	685.899	21.9385
11.8069	683.083	22.0068
11.8129	683.02	22.0752
11.8189	685.09	22.1436
11.8238	682.831	22.2119
11.8297	688.3443	22.2803
11.8369	693.326	22.3486
11.8407	695.529	22.417
11.8479	701.465	22.4854
11.8528	705.92	22.5537
11.8588	707.725	22.62207
11.8643	705.521	22.69043
11.8696	705.616	22.7588
11.8757	706.356	22.8271
11.8808	704.334	22.8955
11.8859	705.4447	22.9639
11.8928	709.299	23.0322
11.899	710.735	23.1006
11.9036	717.333	23.1689
11.9092	723.385	23.2373
11.9147	726.186	23.3057
11.9212	721.847	23.374
11.9268	725.207	23.4424
11.9331	728.763	23.5107
11.938	724.8028	23.5791
11.9436	723.235	23.6475
11.9507	726.42	23.71582
11.9555	729.231	23.78418
11.9603	733.372	23.8525
11.9668	739.076	23.9209
11.9721	741.489	23.9893
11.9789	740.899	24.0576
11.9837	744.547	24.126
11.9897	746.901	24.1943
11.9954	744.299	24.2627
12.0005	741.269	24.3311
12.0061	742.546	24.3994
12.0116	744.421	24.4678
12.0179	749.48	24.5361
12.0242	752.615	24.6045
12.0299	756.105	24.6729
12.0352	757.536	24.7412
12.0407	761.849	24.80957
12.0467	763.8457	24.87793
12.0522	761.971	24.9463
12.0579	760.98	25.0146
12.0634	759.18	25.083
12.0701	758.689	25.1514
12.074	763.016	25.2197
12.0811	766.181	25.2881
12.0861	769.918	25.3564
12.0929	771.859	25.4248
12.0976	777.708	25.4932
12.10319	779.978	25.5615
12.1086	778.072	25.6299
12.1137	778.078	25.6982
12.1222	776.797	25.7666
12.126	774.0769	25.835
12.132	777.191	25.90332
12.138	781.261	25.97168
12.1436	780.217	26.04
12.1488	782.976	26.1084
12.1547	791.405	26.1768
12.1608	793.4931	26.2451
12.16682	791.79	26.3135
12.1723	794.793	26.3818
12.1778	792.002	26.4502
12.1831	791.008	26.5186
12.1892	788.973	26.5869
12.1948	792.832	26.6553
12.1997	790.729	26.7236
12.2057	793.836	26.792
12.2109	801.681	26.8604
12.2175	806.399	26.9287
12.22351	805.655	26.99707
12.2288	806.259	27.06543
12.23433	806.159	27.1338
12.2398	804.106	27.2021
12.2454	802.174	27.2705
12.252	801.384	27.3389
12.2565	802.113	27.4072
12.2616	803.758	27.4756
12.2684	812.45	27.5439
12.27464	816.117	27.6123
12.2799	818.1665	27.6807
12.2853	819.466	27.749
12.2912	818.934	27.8174
12.2978	815.554	27.8857
12.3038	816.126	27.9541
12.3086	813.995	28.0225
12.3139	812.5863	28.09082
12.3194	812.67	28.15918
12.3252	818.466	28.2275
12.3325	825.4826	28.2959
12.3372	826.355	28.3643
12.34184	831.009	28.4326
12.3492	830.618	28.501
12.3541	828.36	28.5693
12.35974	827.355	28.6377
12.3663	824.821	28.7061
12.3704	822.111	28.7744
12.3765	823.083	28.8428
12.3824	828.1084	28.9111
12.3893	832.086	28.9795
12.3946	834.553	29.0479
12.3998	838.843	29.1162
12.4043	839.835	29.18457
12.41144	839.5376	29.25293
12.4155	838.634	29.3213
12.4229	835.057	29.3896
12.4283	830.503	29.458
12.43444	828.097	29.5264
12.4398	833.699	29.5947
12.4454	836.477	29.6631
12.4515	839.401	29.7314
12.4575	844.829	29.7998
12.4617	846.719	29.8682
12.4674	844.382	29.9365
12.4739	847.0387	30.0049
12.479	843.975	30.0732
12.4857	838.79	30.1416
12.4917	834.765	30.21
12.4972	840.089	30.27832
12.5021	842.417	30.34668
12.5078	841.391	30.415
12.5136	848.266	30.4834
12.5197	853.196	30.5518
12.5255	852.359	30.6201
12.5314	854.522	30.6885
12.5364	852.078	30.7568
12.5428	847.222	30.8252
12.5471	843.44	30.8936
12.5528	844.761	30.9619
12.5596	847.25	31.0303
12.5644	846.252	31.0986
12.5703	850.901	31.167
12.5753	857.321	31.2354
12.5819	858.372	31.3037
12.5881	859.118	31.37207
12.5926	857.184	31.44043
12.6	853.818	31.5088
12.6043	848.529	31.5771
12.6102	850.778	31.6455
12.617	852.357	31.7139
12.6221	851.701	31.7822
12.6275	854.392	31.8506
12.6326	856.953	31.9189
12.6393	861.879	31.9873
12.6445	861.394	32.0557
12.65005	862.387	32.124
12.655	859.62	32.1924
12.6617	856.649	32.2607
12.6678	857.148	32.3291
12.6727	855.409	32.3975
12.6785	855.585	32.46582
12.6849	858.322	32.53418
12.6908	860.323	32.6025
12.69544	861.571	32.6709
12.7018	865.489	32.7393
12.70759	866.385	32.8076
12.7135	862.992	32.876
12.7199	861.574	32.9443
12.7246	862.43	33.0127
12.7309	859.294	33.0811
12.7349	858.273	33.1494
12.7404	859.421	33.2178
12.7478	860.206	33.2861
12.75271	862.444	33.3545
12.7583	866.58	33.4229
12.7635	870.264	33.4912
12.7701	866.217	33.55957
12.7763	866.44	33.62793
12.7809	867.14	33.6963
12.78664	864.92	33.7646
12.793	859.963	33.833
12.7985	862.529	33.9014
12.8035	863.0592	33.9697
12.809	863.0921	34.0381
12.816	866.534	34.1064
12.8213	871.3197	34.1748
12.8268	870.45	34.2432
12.832	868.162	34.3115
12.8379	872.125	34.3799
12.8447	869.951	34.4482
12.8499	864.284	34.5166
12.8549	864.1499	34.585
12.861	864.353	34.65332
12.8674	865.393	34.72168
12.8725	868.03	34.79
12.8784	870.268	34.8584
12.8832	871.915	34.9268
12.8884	869.319	34.9951
12.895	873.7027	35.0635
12.9005	872.814	35.1318
12.9077	868.444	35.2002
12.91221	865.518	35.2686
12.9179	864.334	35.3369
12.9241	863.707	35.4053
12.9287	865.002	35.4736
12.9354	866.768	35.542
12.941	868.065	35.6104
12.9458	867.958	35.6787
12.95233	870.642	35.74707
12.9574	871.2572	35.81543
12.9641	868.018	35.8838
12.969	864.969	35.9521
12.9768	862.79	36.0205
12.9812	860.76	36.0889
12.9854	862.111	36.1572
12.9915	865.102	36.2256
12.9981	863.617	36.2939
13.0037	864.463	36.3623
13.0093	871.384	36.4307
13.01514	871.51	36.499
13.0213	868.5849	36.5674
13.0262	867.397	36.6357
13.03146	862.867	36.7041
13.038	860.765	36.7725
13.0433	860.738	36.84082
13.0499	863.613	36.90918
13.0553	864.21	36.9775
13.06018	865.373	37.0459
13.0655	870.225	37.1143
13.0719	871.344	37.1826
13.0779	869.7157	37.251
13.0835	870.455	37.3193
13.08917	865.943	37.3877
13.09404	860.602	37.4561
13.1013	862.626	37.5244
13.10551	862.037	37.5928
13.112	859.974	37.6611
13.1172	861.894	37.7295
13.1233	869.05	37.7979
13.1288	871.678	37.8662
13.1347	871.029	37.93457
13.1401	869.8548	38.00293
13.1468	869.362	38.0713
13.1526	864.5011	38.1396
13.1568	861.73	38.208
13.1632	861.604	38.2764
13.1687	859.404	38.3447
13.1749	860.014	38.4131
13.1798	864.807	38.4814
13.1865	871.537	38.5498
13.1915	870.651	38.6182
13.1976	869.443	38.6865
13.2038	871.422	38.7549
13.2087	866.475	38.8232
13.2154	863.26	38.8916
13.2208	862.49	38.96
13.2254	859.356	39.02832
13.231	858.484	39.09668
13.2369	863.495	39.165
13.2432	868.459	39.2334
13.2484	867.651	39.3018
13.2541	869.113	39.3701
13.2595	871.949	39.4385
13.2656	865.67	39.5068
13.2691	864.3302	39.5752
13.2776	861.213	39.6436
13.2827	858.204	39.7119
13.2891	855.81	39.7803
13.2943	859.071	39.8486
13.299	864.07	39.917
13.3057	864.868	39.9854
13.3079	859.736	40.0146

Data Header:			0.254_hd_uprint_typei_4545_r0			Time:	46.0989	s	4/15/2019 4:06:06 PM
Data Acquisition:	Timed
Station Name:	ft40.cfg
Test File Name:	monotonic_0.2540_typei_hd_4545_uprint.tst
Displacement	Force	Running Time
mm	N	s
13.3086	857.21	40.0244
13.3116	866.676	40.0537
13.3147	859.008	40.083
13.31628	862.604	40.1123
13.3187	859.203	40.1416
13.3201	863.013	40.1709
13.3226	860.656	40.2002
13.3259	856.0459	40.2295
13.32777	863.203	40.2588
13.3314	860.492	40.2881
13.3333	864.933	40.3174
13.3356	851.719	40.34668
13.3377	865.106	40.376
13.3399	853.9198	40.4053
13.3427	864.253	40.43457
13.3443	851.118	40.4639
13.3472	864.142	40.4932
13.3502	851.658	40.5225
13.3523	861.404	40.5518
13.3548	849.99	40.5811
13.3571	860.023	40.6104
13.3602	853.661	40.6396
13.3624	855.645	40.6689
13.36499	851.825	40.6982
13.3668	853.282	40.7275
13.3689	855.8244	40.7568
13.37246	849.345	40.7861
13.3752	858.002	40.81543
13.3768	847.323	40.8447
13.3783	855.13	40.874
13.3819	845.866	40.90332
13.3839	856.423	40.9326
13.38618	845.078	40.9619
13.3889	856.0069	40.9912
13.3918	846.117	41.0205
13.3937	851.27	41.0498
13.3953	843.1554	41.0791
13.3975	849.983	41.1084
13.4013	847.546	41.1377
13.4035	847.9566	41.167
13.4066	845.018	41.1963
13.40807	843.909	41.2256
13.4121	848.347	41.2549
13.4145	841.925	41.28418
13.4153	846.403	41.3135
13.4192	840.35	41.3428
13.4203	850.738	41.37207
13.42322	837.409	41.4014
13.4266	843.776	41.4307
13.4288	838.965	41.46
13.4305	845.564	41.4893
13.4334	839.125	41.5186
13.4362	843.051	41.5479
13.4379	840.498	41.5771
13.4397	840.085	41.6064
13.4432	838.714	41.6357
13.446	836.349	41.665
13.4485	843.526	41.6943
13.44991	835.052	41.7236
13.4523	840.607	41.75293
13.4547	830.734	41.7822
13.4578	840.978	41.8115
13.4591	830.716	41.84082
13.4623	841.547	41.8701
13.4657	831.115	41.8994
13.46723	840.015	41.9287
13.4696	830.305	41.958
13.472	837.976	41.9873
13.4743	833.429	42.0166
13.4767	834.188	42.0459
13.48	832.944	42.0752
13.482	834.071	42.1045
13.4832	835.031	42.1338
13.4877	828.0058	42.1631
13.48848	836.143	42.1924
13.4928	829.4762	42.22168
13.4941	837.319	42.251
13.4958	822.768	42.2803
13.4993	835.073	42.30957
13.5013	824.744	42.3389
13.5032	835.153	42.3682
13.5073	822.243	42.3975
13.5088	835.468	42.4268
13.5107	825.814	42.4561
13.5127	830.787	42.4854
13.516	820.788	42.5146
13.519	828.593	42.5439
13.52135	827.145	42.5732
13.5243	823.906	42.6025
13.5265	825.243	42.6318
13.5289	821.6297	42.6611
13.5308	826.3288	42.69043
13.5327	816.651	42.7197
13.5356	827.554	42.749
13.538	816.669	42.77832
13.5402	826.119	42.8076
13.5437	813.877	42.8369
13.545	822.807	42.8662
13.5478	813.854	42.8955
13.5501	820.849	42.9248
13.5522	814.377	42.9541
13.5541	819.7915	42.9834
13.557	812.077	43.0127
13.5604	811.571	43.042
13.5623	813.645	43.0713
13.565	812.8642	43.1006
13.5681	813.685	43.1299
13.5696	805.448	43.15918
13.573	814.385	43.1885
13.5755	803.54	43.2178
13.5778	809.561	43.24707
13.58	801.329	43.2764
13.5824	813.09	43.3057
13.5841	801.674	43.335
13.5878	805.483	43.3643
13.5899	798.714	43.3936
13.5911	804.516	43.4229
13.5943	799.128	43.4521
13.5972	794.1452	43.4814
13.5991	788.0528	43.5107
13.6086	-14.6071	43.54
13.6077	-51.3037	43.5693
13.6077	-52.80006	43.5986
13.6105	-42.0291	43.62793
13.61275	-52.8433	43.6572
13.61498	-44.3286	43.6865
13.6169	-56.9812	43.71582
13.6197	-44.4398	43.7451
13.6221	-54.9171	43.7744
13.6244	-44.6803	43.8037
13.6261	-51.6776	43.833
13.629	-44.5798	43.8623
13.63195	-52.3407	43.8916
13.6341	-46.0197	43.9209
13.6362	-49.66	43.9502
13.6386	-49.2676	43.9795
13.64085	-46.2953	44.0088
13.6433	-50.9304	44.0381
13.6476	-44.3385	44.0674
13.6483	-55.6516	44.09668
13.6511	-45.17197	44.126
13.6539	-50.5679	44.1553
13.656	-39.5485	44.18457
13.6592	-55.26368	44.2139
13.6607	-42.2969	44.2432
13.6625	-53.3982	44.2725
13.66516	-43.3183	44.3018
13.6671	-53.9484	44.3311
13.671	-44.6787	44.3604
13.6731	-47.6096	44.3896
13.6746	-47.1991	44.4189
13.6769	-52.8109	44.4482
13.681	-49.1793	44.4775
13.6828	-44.9596	44.5068
13.6841	-50.4265	44.5361
13.688	-46.3173	44.56543
13.6902	-52.65678	44.5947
13.6923	-43.3325	44.624
13.6944	-53.5417	44.65332
13.6967	-46.7761	44.6826
13.6994	-51.6818	44.7119
13.701	-42.0894	44.7412
13.7052	-52.5479	44.7705
13.7071	-47.1299	44.7998
13.7086	-50.41164	44.8291
13.711	-46.7508	44.8584
13.7144	-48.2432	44.8877
13.7166	-48.2805	44.917
13.7199	-46.7402	44.9463
13.7212	-52.0156	44.9756
13.7245	-46.3996	45.0049
13.726	-50.8134	45.03418
13.7284	-45.5821	45.0635
13.7313	-51.4082	45.0928
13.73368	-43.1584	45.12207
13.7362	-52.6444	45.1514
13.7388	-46.2491	45.1807
13.7417	-53.5573	45.21
13.7441	-43.8029	45.2393
13.7453	-48.4486	45.2686
13.7483	-49.162	45.2979
13.7512	-50.1143	45.3271
13.7535	-46.4997	45.3564
13.7555	-46.8334	45.3857
13.7578	-53.614	45.415
13.7609	-45.0201	45.4443
13.7635	-50.4552	45.4736
13.7654	-45.6834	45.50293
13.7669	-57.1238	45.5322
13.7702	-43.4494	45.5615
13.7736	-54.061	45.59082
13.77535	-42.5666	45.6201
13.7783	-54.589	45.6494
13.7797	-41.913	45.6787
13.782	-52.2349	45.708
13.7848	-45.5028	45.7373
13.7876	-53.2004	45.7666
13.7895	-46.2282	45.7959
13.7922	-50.55	45.8252
13.7947	-49.7705	45.8545
13.7977	-49.3855	45.8838
13.7999	-52.73708	45.9131
13.8019	-45.633	45.9424
13.8041	-51.58	45.97168
13.8072	-42.3162	46.001
13.8101	-56.3798	46.0303
13.812	-43.8052	46.05957
13.8145	-53.4142	46.0889