File: data/processed_data_files/tensile/0.254_hd_dimension_typeiv_090_r(6).dat
MTS793|BTW|ENU|1|2|.|/|:|1|0|0|A

Data Header:			0.254_hd_dimension_typeiv_090_r0			Time:	20.0178	s	4/14/2019 12:34:26 AM
Data Acquisition:	Timed
Station Name:	ft40.cfg
Test File Name:	monotonic_0.2540_typeiv_hd_090_dimension.tst
Displacement	Force	Running Time
mm	N	s
-40.04158	-190.726	0.0227051
-40.0386	-191.417	0.0910645
-40.0339	-187.035	0.159424
-40.02877	-181.761	0.2277832
-40.0221	-181.949	0.296143
-40.0172	-177.76	0.364502
-40.0115	-168.379	0.432861
-40.0067	-164.14	0.5012207
-40.0006	-163.564	0.56958
-39.9939	-158.794	0.637939
-39.989	-155.795	0.706299
-39.9824	-153.739	0.7746582
-39.9759	-151.994	0.843018
-39.9715	-147.662	0.911377
-39.9654	-149.341	0.979736
-39.9609	-146.066	1.0481
-39.9542	-136.499	1.11646
-39.949	-131.958	1.18481
-39.94371	-128.134	1.25317
-39.93766	-123.939	1.32153
-39.9321	-120.936	1.38989
-39.9254	-120.242	1.458252
-39.9202	-116.346	1.52661
-39.9147	-113.797	1.59497
-39.909	-115.039	1.66333
-39.9037	-112.215	1.73169
-39.8976	-101.886	1.80005
-39.8921	-98.5502	1.86841
-39.8862	-95.5734	1.93677
-39.8805	-90.09314	2.005127
-39.8747	-87.1046	2.07349
-39.8693	-84.75174	2.14185
-39.8641	-83.8706	2.21021
-39.8581	-80.7448	2.27856
-39.8529	-80.3283	2.34692
-39.8465	-77.8962	2.41528
-39.8411	-68.6609	2.48364
-39.8348	-65.4848	2.552002
-39.8285	-59.8371	2.62036
-39.823	-56.2542	2.68872
-39.81797	-54.0071	2.75708
-39.8115	-49.932	2.82544
-39.8058	-45.9625	2.8938
-39.8002	-47.0409	2.96216
-39.7947	-45.6298	3.03052
-39.7881	-44.313	3.098877
-39.784	-38.0125	3.16724
-39.77858	-34.34911	3.2356
-39.7715	-28.6894	3.30396
-39.7671	-23.5464	3.37231
-39.7609	-20.3933	3.44067
-39.7546	-15.4118	3.50903
-39.7493	-10.4747	3.57739
-39.7431	-13.3914	3.645752
-39.7383	-13.3015	3.71411
-39.7318	-9.30925	3.78247
-39.7262	-5.06508	3.85083
-39.7216	-2.09234	3.91919
-39.7142	2.27218	3.98755
-39.71	8.173	4.05591
-39.7041	12.07856	4.12427
-39.69735	18.2389	4.192627
-39.69257	21.1689	4.26099
-39.6862	20.8306	4.32935
-39.6813	20.1907	4.39771
-39.6746	24.432	4.46606
-39.6692	28.3067	4.53442
-39.6639	28.98921	4.60278
-39.6574	36.0389	4.67114
-39.6526	39.9726	4.739502
-39.6471	44.1874	4.80786
-39.642	50.2443	4.87622
-39.6355	55.58572	4.94458
-39.6306	53.9885	5.01294
-39.6254	55.1219	5.0813
-39.6184	61.3947	5.14966
-39.613	61.6719	5.21802
-39.6063	63.0807	5.286377
-39.6009	66.2394	5.35474
-39.5965	72.7457	5.4231
-39.5895	76.7632	5.49146
-39.5857	83.55027	5.55981
-39.5786	88.1026	5.62817
-39.5737	88.8819	5.69653
-39.5663	87.9194	5.76489
-39.5613	95.2704	5.833252
-39.5547	94.7357	5.90161
-39.5501	95.1693	5.96997
-39.5439	99.6047	6.03833
-39.53981	103.815	6.10669
-39.5336	108.542	6.17505
-39.5265	114.092	6.24341
-39.521	120.5112	6.31177
-39.5156	121.227	6.380127
-39.5101	122.2999	6.44849
-39.5042	127.419	6.51685
-39.4985	129.0542	6.58521
-39.49337	127.9593	6.65356
-39.487	131.105	6.72192
-39.4812	135.249	6.79028
-39.4753	139.035	6.85864
-39.47	143.459	6.927002
-39.4644	150.869	6.99536
-39.4584	150.985	7.06372
-39.4543	153.739	7.13208
-39.448	160.83	7.20044
-39.4402	161.438	7.2688
-39.4367	160.961	7.33716
-39.4301	164.765	7.40552
-39.4244	166.315	7.473877
-39.4196	169.881	7.54224
-39.4132	174.803	7.6106
-39.40712	180.894	7.67896
-39.4021	182.227	7.74731
-39.3956	185.285	7.81567
-39.3904	191.032	7.88403
-39.3847	193.502	7.95239
-39.3789	193.0024	8.020752
-39.3735	196.276	8.08911
-39.368	195.879	8.15747
-39.3625	200.385	8.22583
-39.3562	206.941	8.29419
-39.3505	208.288	8.36255
-39.3446	210.997	8.43091
-39.3397	217.173	8.49927
-39.3339	222.165	8.567627
-39.3274	223.686	8.63599
-39.3224	226.111	8.70435
-39.3168	227.706	8.77271
-39.3114	228.428	8.84106
-39.3055	231.92	8.90942
-39.2992	235.103	8.97778
-39.2942	235.975	9.04614
-39.2876	241.199	9.114502
-39.28215	246.43	9.18286
-39.2768	251.428	9.25122
-39.2715	253.894	9.31958
-39.2657	257.308	9.38794
-39.2597	258.0033	9.4563
-39.2547	258.228	9.52466
-39.2479	261.1098	9.59302
-39.2419	264.336	9.661377
-39.23748	262.596	9.72974
-39.2314	267.746	9.7981
-39.2257	273.898	9.86646
-39.22047	279.91	9.93481
-39.2127	281.587	10.0032
-39.2093	285.187	10.0715
-39.2029	287.711	10.1399
-39.1963	287.153	10.2083
-39.1913	289.802	10.2766
-39.1856	292.21	10.345
-39.1794	290.764	10.41333
-39.17384	291.538	10.4817
-39.1675	300.867	10.55
-39.1632	304.903	10.6184
-39.15678	308.286	10.6868
-39.15255	313.2052	10.7551
-39.14761	313.632	10.8235
-39.1407	313.707	10.8918
-39.1347	316.266	10.9602
-39.1279	317.09	11.0286
-39.1229	315.241	11.0969
-39.116	316.988	11.1653
-39.1109	326.381	11.2336
-39.1056	330.387	11.302
-39.0994	330.323	11.3704
-39.094	337.638	11.4387
-39.0893	340.1568	11.50708
-39.0829	339.749	11.5754
-39.0777	342.681	11.6438
-39.0715	344.052	11.7122
-39.0657	341.719	11.7805
-39.0616	340.782	11.8489
-39.0551	347.89	11.9172
-39.048	350.606	11.9856
-39.0434	353.445	12.054
-39.0375	358.415	12.1223
-39.0325	360.431	12.1907
-39.0273	363.089	12.259
-39.0203	365.34	12.3274
-39.0142	365.703	12.3958
-39.008	362.755	12.4641
-39.0041	363.963	12.5325
-38.9973	368.861	12.60083
-38.99202	371.4523	12.6692
-38.9868	372.169	12.7375
-38.9804	378.498	12.8059
-38.9739	382.514	12.8743
-38.9685	386.597	12.9426
-38.9633	385.022	13.011
-38.9566	387.635	13.0793
-38.9523	383.292	13.1477
-38.9465	384.331	13.2161
-38.9412	389.489	13.2844
-38.9355	388.2	13.3528
-38.9297	390.367	13.4211
-38.9225	394.327	13.4895
-38.9183	398.526	13.5579
-38.9127	403.031	13.6262
-38.906	404.568	13.69458
-38.9007	403.956	13.7629
-38.89447	402.568	13.8313
-38.8896	403.967	13.8997
-38.8838	405.865	13.968
-38.87809	404.369	14.0364
-38.8729	407.073	14.1047
-38.8662	410.068	14.1731
-38.8601	414.046	14.2415
-38.8551	417.518	14.3098
-38.8493	420.82	14.3782
-38.8439	419.5336	14.4465
-38.8386	420.043	14.5149
-38.8325	420.72	14.5833
-38.8267	420.716	14.6516
-38.8219	417.252	14.72
-38.8157	420.318	14.78833
-38.8096	421.123	14.8567
-38.8044	423.61	14.925
-38.79871	429.661	14.9934
-38.7924	432.543	15.0618
-38.7874	432.727	15.1301
-38.7801	431.426	15.1985
-38.7749	434.391	15.2668
-38.76952	433.233	15.3352
-38.7648	429.344	15.4036
-38.7577	431.597	15.4719
-38.7538	432.945	15.5403
-38.7474	434.34	15.6086
-38.7416	437.999	15.677
-38.7356	440.5976	15.7454
-38.7304	438.682	15.8137
-38.7233	439.9379	15.88208
-38.7183	444.748	15.9504
-38.713	440.969	16.0188
-38.7075	440.254	16.0872
-38.70179	440.509	16.1555
-38.6957	439.8063	16.2239
-38.6905	440.427	16.2922
-38.6839	445.381	16.3606
-38.6783	445.452	16.429
-38.6736	445.305	16.4973
-38.6674	446.692	16.5657
-38.662	451.085	16.634
-38.6553	450.2081	16.7024
-38.6506	445.629	16.7708
-38.6446	447.343	16.8391
-38.6393	444.565	16.9075
-38.6326	444.506	16.97583
-38.6282	446.315	17.0442
-38.6212	448.226	17.1125
-38.6161	446.025	17.1809
-38.61	449.118	17.2493
-38.6051	453.552	17.3176
-38.599	450.814	17.386
-38.5935	449.236	17.4543
-38.5872	449.384	17.5227
-38.5823	445.698	17.5911
-38.5756	445.245	17.6594
-38.5702	446.921	17.7278
-38.5656	446.553	17.7961
-38.5584	446.046	17.8645
-38.55386	449.386	17.9329
-38.5486	452.898	18.0012
-38.5424	453.422	18.06958
-38.5375	450.307	18.1379
-38.5301	449.8078	18.2063
-38.5244	447.172	18.2747
-38.519	447.627	18.343
-38.5136	443.978	18.4114
-38.5074	444.643	18.4797
-38.503	444.967	18.5481
-38.49728	446.455	18.6165
-38.49054	448.926	18.6848
-38.4848	449.631	18.7532
-38.4794	450.158	18.8215
-38.4742	447.7681	18.8899
-38.469	445.453	18.9583
-38.4623	443.618	19.0266
-38.4577	443.727	19.095
-38.45063	438.58	19.16333
-38.4451	439.4689	19.2317
-38.4386	442.735	19.3
-38.434	445.2	19.3684
-38.4288	444.724	19.4368
-38.4219	446.598	19.5051
-38.4154	446.849	19.5735
-38.4109	444.224	19.6418
-38.4044	443.498	19.7102
-38.3994	438.8811	19.7786
-38.39452	435.052	19.8469
-38.3872	434.536	19.9153
-38.3829	439.093	19.9836
-38.3808	443.098	20.0129

Data Header:			0.254_hd_dimension_typeiv_090_r0			Time:	27.5708	s	4/14/2019 12:34:33 AM
Data Acquisition:	Timed
Station Name:	ft40.cfg
Test File Name:	monotonic_0.2540_typeiv_hd_090_dimension.tst
Displacement	Force	Running Time
mm	N	s
-38.3804	441.15	20.0227
-38.3769	439.0087	20.052
-38.3758	436.778	20.0813
-38.37191	439.289	20.1106
-38.3692	443.54	20.1399
-38.3662	438.014	20.1692
-38.3633	439.838	20.1985
-38.3624	436.71	20.2278
-38.3594	441.652	20.25708
-38.3566	436.055	20.2864
-38.3536	441.604	20.3157
-38.35183	436.926	20.345
-38.3494	440.375	20.3743
-38.3474	435.157	20.4036
-38.3452	438.929	20.4329
-38.3434	437.553	20.4622
-38.3401	438.926	20.4915
-38.3376	437.7894	20.5208
-38.33543	436.433	20.55
-38.3334	440.555	20.5793
-38.3305	434.624	20.6086
-38.3278	440.0322	20.6379
-38.3245	436.898	20.6672
-38.32291	442.219	20.6965
-38.32082	434.032	20.72583
-38.3188	439.436	20.7551
-38.31572	434.745	20.7844
-38.3136	438.005	20.8137
-38.31078	436.875	20.843
-38.3091	440.72	20.8723
-38.3061	437.088	20.9016
-38.3052	434.438	20.9309
-38.3011	437.774	20.9602
-38.2979	437.315	20.9895
-38.2964	438.2926	21.0188
-38.2945	431.839	21.0481
-38.2908	440.786	21.0774
-38.288	433.4809	21.1067
-38.2865	437.828	21.136
-38.285	429.233	21.1653
-38.2819	442.544	21.19458
-38.2789	433.43	21.2239
-38.2762	438.849	21.2532
-38.2736	431.085	21.2825
-38.272	439.099	21.3118
-38.2693	431.588	21.3411
-38.2672	437.633	21.3704
-38.2639	434.756	21.3997
-38.2619	437.384	21.429
-38.2601	435.862	21.4583
-38.2574	433.875	21.4875
-38.25589	437.01	21.5168
-38.2521	431.796	21.5461
-38.25013	440.23	21.5754
-38.2474	433.094	21.6047
-38.2447	441.053	21.634
-38.2434	430.909	21.66333
-38.2396	438.831	21.6926
-38.238	431.741	21.7219
-38.2347	440.029	21.7512
-38.2323	431.884	21.7805
-38.231	437.818	21.8098
-38.22821	433.456	21.8391
-38.226	435.591	21.8684
-38.2215	431.223	21.8977
-38.2196	434.201	21.927
-38.2186	435.863	21.9563
-38.2162	432.432	21.9856
-38.2133	434.424	22.0149
-38.2112	430.962	22.0442
-38.2091	437.059	22.0735
-38.205	428.983	22.1028
-38.2036	435.5	22.13208
-38.2007	433.202	22.1614
-38.199	436.426	22.1907
-38.1955	427.456	22.22
-38.1926	434.204	22.2493
-38.1914	432.702	22.2786
-38.1888	434.682	22.3079
-38.1871	432.976	22.3372
-38.1847	433.829	22.3665
-38.1816	434.363	22.3958
-38.17841	429.851	22.425
-38.1768	433.27	22.4543
-38.1748	432.416	22.4836
-38.1717	436.365	22.5129
-38.1689	429.301	22.5422
-38.1667	436.688	22.5715
-38.1653	431.957	22.60083
-38.1627	434.497	22.6301
-38.16	429.568	22.6594
-38.1569	436.254	22.6887
-38.1539	431.754	22.718
-38.1524	431.652	22.7473
-38.1503	432.4	22.7766
-38.147	432.814	22.8059
-38.1451	434.565	22.8352
-38.1416	430.045	22.8645
-38.1403	435.604	22.8938
-38.1363	429.906	22.9231
-38.13575	434.414	22.9524
-38.1318	426.308	22.9817
-38.1301	437.072	23.011
-38.1266	429.86	23.0403
-38.1247	437.052	23.06958
-38.1239	426.755	23.0989
-38.12085	436.88	23.1282
-38.1192	427.132	23.1575
-38.1152	433.333	23.1868
-38.1124	430.294	23.2161
-38.1103	435.484	23.2454
-38.1085	429.3	23.2747
-38.1047	430.325	23.304
-38.1039	431.442	23.3333
-38.1006	430.696	23.3625
-38.09877	434.585	23.3918
-38.0961	430.744	23.4211
-38.0938	436.936	23.4504
-38.0914	427.207	23.4797
-38.0887	434.694	23.509
-38.0864	428.338	23.53833
-38.0845	436.495	23.5676
-38.0823	426.73	23.5969
-38.0787	434.9064	23.6262
-38.0761	427.618	23.6555
-38.0736	433.052	23.6848
-38.0712	425.685	23.7141
-38.0698	432.238	23.7434
-38.0675	431.719	23.7727
-38.0639	432.415	23.802
-38.0618	428.548	23.8313
-38.0596	430.304	23.8606
-38.0573	433.531	23.8899
-38.054	427.328	23.9192
-38.0514	431.94	23.9485
-38.0505	428.22	23.9778
-38.0474	435.583	24.00708
-38.0444	425.38	24.0364
-38.0434	429.918	24.0657
-38.0403	428.075	24.095
-38.0371	431.269	24.1243
-38.03458	427.941	24.1536
-38.033	432.452	24.1829
-38.0306	428.391	24.2122
-38.0284	429.23	24.2415
-38.0245	428.914	24.2708
-38.0214	428.694	24.3
-38.0193	432.044	24.3293
-38.0174	426.262	24.3586
-38.0146	430.654	24.3879
-38.0136	425.7	24.4172
-38.00972	430.013	24.4465
-38.0092	424.777	24.47583
-38.0062	432.529	24.5051
-38.0031	426.9433	24.5344
-38	430.255	24.5637
-37.9976	425.73	24.593
-37.9954	431.008	24.6223
-37.9946	425.775	24.6516
-37.9907	427.114	24.6809
-37.9892	429.921	24.7102
-37.9869	428.3364	24.7395
-37.9844	429.089	24.7688
-37.9807	421.4577	24.7981
-37.9785	431.187	24.8274
-37.9766	423.878	24.8567
-37.9734	430.214	24.886
-37.9713	421.553	24.9153
-37.9698	431.856	24.94458
-37.967	422.076	24.9739
-37.9642	427.138	25.0032
-37.9611	422.921	25.0325
-37.9593	431.906	25.0618
-37.95612	423.461	25.0911
-37.9536	425.392	25.1204
-37.9513	423.408	25.1497
-37.9496	426.341	25.179
-37.9466	424.815	25.2083
-37.9453	424.506	25.2375
-37.942	428.926	25.2668
-37.94051	423.524	25.2961
-37.9368	427.963	25.3254
-37.9352	420.037	25.3547
-37.9329	429.123	25.384
-37.9299	419.232	25.41333
-37.927	427.052	25.4426
-37.9254	420.15	25.4719
-37.9233	426.39	25.5012
-37.9204	418.07	25.5305
-37.9182	425.953	25.5598
-37.9146	419.642	25.5891
-37.9134	421.688	25.6184
-37.9098	416.0452	25.6477
-37.9083	415.784	25.677
-37.9049	411.803	25.7063
-37.8993	-8.02341	25.7356
-37.8993	-47.1008	25.7649
-37.8965	-42.1246	25.7942
-37.8952	-35.4634	25.8235
-37.8933	-45.0781	25.8528
-37.88929	-39.1545	25.88208
-37.889	-43.7602	25.9114
-37.886	-36.9094	25.9407
-37.8826	-43.0289	25.97
-37.8809	-38.8999	25.9993
-37.8782	-40.72356	26.0286
-37.876	-41.1053	26.0579
-37.8737	-43.83651	26.0872
-37.8704	-39.6568	26.1165
-37.8679	-38.6068	26.1458
-37.8665	-41.4423	26.175
-37.8635	-38.9221	26.2043
-37.8608	-43.9022	26.2336
-37.8596	-38.0509	26.2629
-37.857	-44.363	26.2922
-37.8542	-35.9717	26.3215
-37.8527	-41.4466	26.35083
-37.8484	-39.162	26.3801
-37.8463	-44.1537	26.4094
-37.844	-38.1641	26.4387
-37.8416	-43.7051	26.468
-37.8391	-41.27803	26.4973
-37.83625	-40.83099	26.5266
-37.83411	-38.9766	26.5559
-37.8316	-41.6343	26.5852
-37.8283	-46.2305	26.6145
-37.82708	-39.8741	26.6438
-37.8245	-42.3409	26.6731
-37.8225	-38.5618	26.7024
-37.82016	-44.7611	26.7317
-37.8172	-35.7311	26.761
-37.8155	-44.3001	26.7903
-37.8121	-37.9545	26.81958
-37.81102	-46.7663	26.8489
-37.8075	-36.0901	26.8782
-37.8053	-45.0279	26.9075
-37.8027	-38.5865	26.9368
-37.8	-45.14901	26.9661
-37.7982	-40.3565	26.9954
-37.7952	-42.3642	27.0247
-37.7942	-41.9721	27.054
-37.7912	-38.9629	27.0833
-37.7881	-40.54018	27.1125
-37.785	-38.9641	27.1418
-37.7828	-44.29953	27.1711
-37.7807	-37.3884	27.2004
-37.7785	-44.0014	27.2297
-37.776	-36.4369	27.259
-37.7741	-43.6293	27.28833
-37.7718	-36.7259	27.3176
-37.77013	-47.54277	27.3469
-37.7664	-37.7206	27.3762
-37.7643	-43.7131	27.4055
-37.7606	-38.5321	27.4348
-37.7591	-44.87904	27.4641
-37.7569	-39.2618	27.4934
-37.7551	-40.3734	27.5227
-37.7516	-42.322	27.552
-37.7502	-36.8907	27.5618