File: data/processed_data_files/tensile/0.254_hd_dimension_typei_4545_r(1).dat
MTS793|BTW|ENU|1|2|.|/|:|1|0|0|A

Data Header:			0.254_hd_dimension_typei_4545_r0			Time:	20.0271	s	4/15/2019 3:07:19 PM
Data Acquisition:	Timed
Station Name:	ft40.cfg
Test File Name:	monotonic_0.2540_typei_hd_4545_dimension.tst
Displacement	Force	Running Time
mm	N	s
9.98148	-117.271	0.0305176
9.98249	-120.432	0.098877
9.98767	-120.049	0.167236
9.99337	-114.056	0.2355957
9.99916	-116.148	0.303955
10.00537	-115.987	0.372314
10.01152	-108.3789	0.440674
10.0163	-105.006	0.5090332
10.021	-98.3014	0.577393
10.02757	-91.1992	0.645752
10.0323	-85.84343	0.714111
10.0387	-87.7035	0.7824707
10.0443	-84.5103	0.85083
10.0504	-79.1655	0.919189
10.0571	-80.367	0.987549
10.0631	-81.3508	1.05591
10.068	-75.9361	1.12427
10.073	-72.8094	1.192627
10.0786	-65.7525	1.26099
10.0847	-59.62	1.32935
10.09077	-53.3313	1.39771
10.0951	-52.6032	1.46606
10.1013	-51.4715	1.53442
10.1069	-46.0879	1.60278
10.11363	-45.1127	1.67114
10.1193	-46.2855	1.739502
10.1242	-41.8274	1.80786
10.1304	-38.0326	1.87622
10.1355	-33.5673	1.94458
10.1408	-29.1342	2.01294
10.1469	-23.0198	2.0813
10.1521	-20.183	2.14966
10.15876	-17.5821	2.21802
10.1645	-12.0902	2.286377
10.1688	-12.1898	2.35474
10.176	-11.8358	2.4231
10.18113	-10.0123	2.49146
10.1875	-9.99622	2.55981
10.1934	-1.73888	2.62817
10.1985	1.71715	2.69653
10.2043	7.243187	2.76489
10.2101	12.3055	2.833252
10.2145	17.7437	2.90161
10.2212	22.0887	2.96997
10.2265	23.0678	3.03833
10.2318	22.989	3.10669
10.2384	26.4811	3.17505
10.2442	26.2155	3.24341
10.2491	28.5316	3.31177
10.25471	35.7099	3.380127
10.2615	39.7116	3.44849
10.2659	42.5494	3.51685
10.2726	49.87674	3.58521
10.2774	57.8825	3.65356
10.2837	59.0734	3.72192
10.2905	59.0649	3.79028
10.2949	61.2984	3.85864
10.3001	61.5315	3.927002
10.3066	61.2885	3.99536
10.3127	67.12075	4.06372
10.3176	72.7838	4.13208
10.3228	76.02018	4.20044
10.3289	79.711	4.2688
10.3356	90.7321	4.33716
10.3401	94.1178	4.40552
10.3457	93.6237	4.473877
10.3523	97.8227	4.54224
10.3574	98.1725	4.6106
10.3643	97.8804	4.67896
10.369	100.077	4.74731
10.3756	104.308	4.81567
10.3795	107.043	4.88403
10.3868	111.708	4.95239
10.392	121.3	5.020752
10.3974	128.53	5.08911
10.403	128.392	5.15747
10.4094	130.653	5.22583
10.4152	132.46	5.29419
10.421	131.659	5.36255
10.4268	133.23	5.43091
10.4315	137.2989	5.49927
10.4389	139.598	5.567627
10.44331	142.99	5.63599
10.4491	152.3933	5.70435
10.4542	159.0455	5.77271
10.4605	162.1942	5.84106
10.4657	164.807	5.90942
10.4721	165.449	5.97778
10.4775	167.578	6.04614
10.4835	169.344	6.114502
10.48939	170.38	6.18286
10.49525	171.189	6.25122
10.5	175.791	6.31958
10.50562	184.394	6.38794
10.5111	190.42	6.4563
10.5177	193.669	6.52466
10.5226	200.308	6.59302
10.528	201.293	6.661377
10.5336	201.573	6.72974
10.5408	204.469	6.7981
10.5456	206.217	6.86646
10.55235	203.1936	6.93481
10.557	207.527	7.00317
10.5633	217.2755	7.07153
10.5685	221.192	7.13989
10.5739	226.1985	7.208252
10.5798	233.1541	7.27661
10.5848	235.681	7.34497
10.5912	236.7265	7.41333
10.5963	239.1963	7.48169
10.6021	241.662	7.55005
10.6087	234.211	7.61841
10.6151	238.7081	7.68677
10.6192	249.802	7.755127
10.6251	254.076	7.82349
10.6326	255.734	7.89185
10.6373	263.488	7.96021
10.6421	269.819	8.02856
10.6476	269.4487	8.09692
10.6535	272.828	8.16528
10.6593	275.015	8.23364
10.6647	271.598	8.302002
10.6712	269.821	8.37036
10.6767	277.686	8.43872
10.6822	284.433	8.50708
10.688	287.505	8.57544
10.6946	293.8829	8.6438
10.6992	301.284	8.71216
10.706	303.495	8.78052
10.7106	307.236	8.848877
10.7169	307.956	8.91724
10.722	307.104	8.9856
10.7266	304.731	9.05396
10.7341	308.1683	9.12231
10.7395	316.658	9.19067
10.7459	317.878	9.25903
10.7504	323.805	9.32739
10.7555	331.423	9.395752
10.7617	335.405	9.46411
10.7686	338.9505	9.53247
10.7738	342.534	9.60083
10.7779	338.995	9.66919
10.7852	338.15	9.73755
10.791	339.662	9.80591
10.7964	346.179	9.87427
10.8021	349.08	9.942627
10.8069	354.127	10.011
10.8137	357.602	10.0793
10.8179	366.302	10.1477
10.8249	370.901	10.2161
10.8301	373.937	10.2844
10.8367	373.518	10.3528
10.8423	371.0051	10.4211
10.848	374.446	10.4895
10.854	376.8082	10.5579
10.85932	378.504	10.6262
10.8652	384.497	10.69458
10.87023	390.327	10.7629
10.8766	396.673	10.8313
10.8811	402.738	10.8997
10.8881	409.463	10.968
10.894	406.086	11.0364
10.8989	404.493	11.1047
10.9051	406.954	11.1731
10.9107	408.15	11.2415
10.9159	407.518	11.3098
10.9216	412.854	11.3782
10.9264	419.575	11.4465
10.9329	423.771	11.5149
10.9388	430.081	11.5833
10.94443	436.8374	11.6516
10.9507	440.531	11.72
10.9563	437.986	11.78833
10.9618	441.09	11.8567
10.9674	441.566	11.925
10.9728	438.636	11.9934
10.9787	442.702	12.0618
10.9835	447.492	12.1301
10.9903	451.23	12.1985
10.9953	460.063	12.2668
11.0017	467.19	12.3352
11.0068	469.918	12.4036
11.0121	470.106	12.4719
11.0195	472.968	12.5403
11.0237	475.4967	12.6086
11.02919	471.411	12.677
11.03642	471.642	12.7454
11.0417	477.756	12.8137
11.0461	482.574	12.88208
11.05336	486.79	12.9504
11.0586	495.1413	13.0188
11.0637	499.112	13.0872
11.0704	501.215	13.1555
11.0765	501.782	13.2239
11.0812	506.387	13.2922
11.0876	505.491	13.3606
11.0924	504.406	13.429
11.0975	505.3931	13.4973
11.1038	510.124	13.5657
11.1096	515.0155	13.634
11.1142	521.474	13.7024
11.1215	525.746	13.7708
11.1262	530.456	13.8391
11.1319	534.642	13.9075
11.1377	536.483	13.97583
11.1444	536.865	14.0442
11.1483	537.052	14.1125
11.1562	536.081	14.1809
11.1607	537.04	14.2493
11.1672	542.949	14.3176
11.1731	549.061	14.386
11.1786	552.765	14.4543
11.1834	556.915	14.5227
11.1888	562.459	14.5911
11.1952	566.511	14.6594
11.201	565.11	14.7278
11.2063	565.389	14.7961
11.212	567.172	14.8645
11.2179	565.317	14.9329
11.2245	569.159	15.0012
11.2296	576.341	15.06958
11.2344	577.161	15.1379
11.2415	582.612	15.2063
11.2463	589.243	15.2747
11.2513	595.025	15.343
11.2582	593.259	15.4114
11.2642	594.869	15.4797
11.2699	597.111	15.5481
11.2751	594.195	15.6165
11.2807	595.614	15.6848
11.2871	599.7428	15.7532
11.2922	605.009	15.8215
11.2972	606.504	15.8899
11.3038	615.119	15.9583
11.3087	623.2959	16.0266
11.31425	620.947	16.095
11.32091	623.241	16.16333
11.3249	625.329	16.2317
11.3328	623.501	16.3
11.3361	622.522	16.3684
11.3435	626.848	16.4368
11.3482	630.341	16.5051
11.3529	631.117	16.5735
11.3608	639.751	16.6418
11.3662	649.725	16.7102
11.3709	650.889	16.7786
11.37664	651.225	16.8469
11.3835	654.327	16.9153
11.3884	651.493	16.9836
11.3951	649.574	17.052
11.3997	650.728	17.1204
11.4049	652.914	17.1887
11.41165	655.415	17.25708
11.41752	660.528	17.3254
11.4236	671.925	17.3938
11.429	674.314	17.4622
11.4348	676.581	17.5305
11.4401	681.282	17.5989
11.4468	676.289	17.6672
11.45106	678.546	17.7356
11.4564	679.739	17.804
11.4625	676.819	17.8723
11.4687	677.978	17.9407
11.475	686.052	18.009
11.4796	693.275	18.0774
11.4862	697.0675	18.1458
11.4915	703.016	18.2141
11.4962	705.574	18.2825
11.503	704.679	18.35083
11.5092	706.912	18.4192
11.5144	706.234	18.4875
11.5201	703.799	18.5559
11.5244	702.612	18.6243
11.5312	708.515	18.6926
11.5365	716.477	18.761
11.5422	719.69	18.8293
11.5481	725.931	18.8977
11.5541	728.876	18.9661
11.55923	730.75	19.0344
11.56615	732.603	19.1028
11.57114	732.466	19.1711
11.5762	729.77	19.2395
11.5832	725.8	19.3079
11.5874	732.648	19.3762
11.5936	739.479	19.44458
11.6	744.057	19.5129
11.6049	747.375	19.5813
11.61123	752.7981	19.6497
11.6159	754.173	19.718
11.6225	755.924	19.7864
11.628	756.906	19.8547
11.6334	755.876	19.9231
11.63916	750.769	19.9915
11.64178	766.68	20.0208

Data Header:			0.254_hd_dimension_typei_4545_r0			Time:	40.0254	s	4/15/2019 3:07:39 PM
Data Acquisition:	Timed
Station Name:	ft40.cfg
Test File Name:	monotonic_0.2540_typei_hd_4545_dimension.tst
Displacement	Force	Running Time
mm	N	s
11.6432	765.514	20.0305
11.6475	768.2337	20.0989
11.65396	766.918	20.1672
11.66025	764.88	20.2356
11.6653	765.313	20.304
11.6714	766.531	20.3723
11.6766	766.156	20.4407
11.682	769.587	20.509
11.6874	779.105	20.5774
11.6931	782.666	20.6458
11.7002	784.364	20.7141
11.7057	789.339	20.7825
11.7112	791.255	20.85083
11.7168	787.94	20.9192
11.7223	788.124	20.9875
11.7283	789.128	21.0559
11.733	786.8	21.1243
11.7402	789.505	21.1926
11.7455	798.883	21.261
11.7509	802.927	21.3293
11.7562	805.948	21.3977
11.7618	811.884	21.4661
11.7673	812.372	21.5344
11.7735	810.392	21.6028
11.7793	809.272	21.6711
11.7852	809.941	21.7395
11.7911	807.987	21.8079
11.7963	808.404	21.8762
11.80233	817.013	21.94458
11.8073	822.3056	22.0129
11.8134	825.599	22.0813
11.8188	827.846	22.1497
11.825	832.0058	22.218
11.82976	833.24	22.2864
11.8367	832.951	22.3547
11.8428	828.948	22.4231
11.848	827.76	22.4915
11.8533	826.329	22.5598
11.8588	830.437	22.6282
11.8651	837.108	22.6965
11.8708	841.0387	22.7649
11.8765	845.019	22.8333
11.882	849.567	22.9016
11.8874	852.443	22.97
11.8923	853.1897	23.03833
11.8987	850.342	23.1067
11.9042	846.775	23.175
11.9107	844.367	23.2434
11.9153	847.691	23.3118
11.9223	851.903	23.3801
11.9261	855.155	23.4485
11.9324	860.921	23.5168
11.9391	865.9809	23.5852
11.9452	868.095	23.6536
11.9509	869.106	23.7219
11.9561	867.875	23.7903
11.9618	863.112	23.8586
11.9686	863.368	23.927
11.9722	864.392	23.9954
11.9793	867.246	24.0637
11.9857	869.18	24.13208
11.9903	874.18	24.2004
11.9954	879.069	24.2688
12.0015	881.002	24.3372
12.0074	883.805	24.4055
12.0124	883.646	24.4739
12.0181	880.808	24.5422
12.02347	876.9834	24.6106
12.0289	881.2644	24.679
12.0349	880.586	24.7473
12.041	878.32	24.8157
12.0477	884.721	24.884
12.0521	890.123	24.9524
12.0584	892.062	25.0208
12.0643	896.001	25.0891
12.0706	899.091	25.1575
12.07624	893.002	25.22583
12.0811	892.568	25.2942
12.087	894.383	25.3625
12.0928	894.008	25.4309
12.0989	891.967	25.4993
12.1038	895.141	25.5676
12.1097	901.009	25.636
12.1163	902.469	25.7043
12.1203	906.522	25.7727
12.1265	910.435	25.8411
12.1327	908.133	25.9094
12.1376	904.861	25.9778
12.1435	905.4765	26.0461
12.1502	904.941	26.1145
12.1548	902.087	26.1829
12.1607	902.991	26.2512
12.1666	907.419	26.31958
12.1721	911.1947	26.3879
12.1778	913.376	26.4563
12.1837	918.656	26.5247
12.1899	918.237	26.593
12.19556	915.424	26.6614
12.20034	916.3075	26.7297
12.20653	913.833	26.7981
12.21173	912.118	26.8665
12.2193	910.466	26.9348
12.2238	911.565	27.0032
12.2296	915.203	27.0715
12.235	920.165	27.1399
12.2406	923.637	27.2083
12.2467	924.856	27.2766
12.2517	924.4209	27.345
12.2569	925.706	27.41333
12.2641	924.226	27.4817
12.26946	920.148	27.55
12.27523	919.9	27.6184
12.2814	917.619	27.6868
12.2868	919.406	27.7551
12.2921	925.116	27.8235
12.2979	928.3374	27.8918
12.3029	927.7887	27.9602
12.3097	930.548	28.0286
12.31414	935.648	28.0969
12.32102	931.623	28.1653
12.3264	927.817	28.2336
12.3318	927.3363	28.302
12.33887	924.8576	28.3704
12.3425	925.623	28.4387
12.3489	929.407	28.50708
12.35539	932.719	28.5754
12.3603	932.713	28.6438
12.3661	935.0946	28.7122
12.3715	941.728	28.7805
12.37679	937.89	28.8489
12.3832	935.155	28.9172
12.3901	934.849	28.9856
12.3946	930.892	29.054
12.3998	926.692	29.1223
12.4059	931.004	29.1907
12.4124	934.304	29.259
12.4182	935.715	29.3274
12.4231	937.5531	29.3958
12.4282	945.887	29.4641
12.4347	943.024	29.5325
12.4399	939.368	29.60083
12.4459	937.921	29.6692
12.4511	936.1051	29.7375
12.457	934.05	29.8059
12.4634	933.897	29.8743
12.4682	936.24	29.9426
12.4733	936.652	30.011
12.4802	938.684	30.0793
12.4855	947.153	30.1477
12.492	948.145	30.2161
12.4959	946.491	30.2844
12.5016	944.079	30.3528
12.5084	941.2478	30.4211
12.5143	938.701	30.4895
12.5195	936.662	30.5579
12.5256	937.245	30.6262
12.5309	939.377	30.69458
12.5371	940.176	30.7629
12.5431	947.864	30.8313
12.548	949.418	30.8997
12.5542	948.419	30.968
12.5592	948.47	31.0364
12.56569	944.579	31.1047
12.5714	944.411	31.1731
12.5761	942.432	31.2415
12.5817	939.313	31.3098
12.5883	939.067	31.3782
12.5943	941.175	31.4465
12.5996	947.25	31.5149
12.605	949.509	31.5833
12.6107	948.903	31.6516
12.6165	951.89	31.72
12.6211	949.3938	31.78833
12.6282	946.6908	31.8567
12.6343	945.0484	31.925
12.6399	941.932	31.9934
12.6463	939.901	32.0618
12.6505	942.0976	32.1301
12.65568	948.248	32.1985
12.6623	948.109	32.2668
12.6676	951.131	32.3352
12.6728	952.933	32.4036
12.6793	952.628	32.4719
12.6847	949.559	32.5403
12.6907	950.599	32.6086
12.6964	946.769	32.677
12.7028	941.577	32.7454
12.7074	942.096	32.8137
12.7137	948.2179	32.88208
12.7192	949.358	32.9504
12.7239	951.517	33.0188
12.73023	953.813	33.0872
12.7364	955.008	33.1555
12.7419	953.285	33.2239
12.7483	952.138	33.2922
12.7528	949.463	33.3606
12.7585	944.065	33.429
12.7648	941.62	33.4973
12.7713	948.5835	33.5657
12.7757	950.323	33.634
12.7819	950.145	33.7024
12.7874	955.427	33.7708
12.7934	955.424	33.8391
12.7991	953.361	33.9075
12.8045	954.338	33.97583
12.81	952.493	34.0442
12.8165	945.604	34.1125
12.8217	943.5575	34.1809
12.8267	948.262	34.2493
12.8336	948.44	34.3176
12.8391	949.669	34.386
12.8445	954.164	34.4543
12.85003	955.04	34.5227
12.8563	957.04	34.5911
12.8614	957.2403	34.6594
12.8668	955.495	34.7278
12.8724	948.872	34.7961
12.8787	947.472	34.8645
12.8843	947.992	34.9329
12.8902	947.013	35.0012
12.895	948.73	35.06958
12.9007	951.836	35.1379
12.90594	951.939	35.2063
12.9131	959.039	35.2747
12.9184	958.8006	35.343
12.92398	957.591	35.4114
12.9299	949.282	35.4797
12.9363	949.939	35.5481
12.9408	948.717	35.6165
12.9471	945.854	35.6848
12.9523	946.7243	35.7532
12.9597	951.3324	35.8215
12.9645	952.237	35.8899
12.9705	956.548	35.9583
12.97633	959.1358	36.0266
12.9806	957.197	36.095
12.9875	954.254	36.16333
12.9935	953.192	36.2317
12.9989	951.953	36.3
13.0043	949.234	36.3684
13.0096	947.731	36.4368
13.0154	952.009	36.5051
13.0215	949.513	36.5735
13.026	954.983	36.6418
13.0326	959.987	36.7102
13.0384	958.898	36.7786
13.0439	955.279	36.8469
13.0495	956.588	36.9153
13.0554	955.476	36.9836
13.06008	950.1275	37.052
13.0667	948.1	37.1204
13.0709	949.508	37.1887
13.0772	950.16	37.25708
13.0828	953.339	37.3254
13.0906	958.664	37.3938
13.0956	960.596	37.4622
13.1004	955.451	37.5305
13.107	956.552	37.5989
13.1117	956.998	37.6672
13.1179	951.929	37.7356
13.124	950.276	37.804
13.1293	952.027	37.8723
13.13482	949.696	37.9407
13.14098	951.453	38.009
13.1473	955.7641	38.0774
13.1522	959.484	38.1458
13.1578	957.026	38.2141
13.1635	958.878	38.2825
13.1696	959.62	38.35083
13.1747	954.918	38.4192
13.1801	950.514	38.4875
13.186	950.2702	38.5559
13.1932	949.261	38.6243
13.1979	950.417	38.6926
13.2038	954.868	38.761
13.2085	956.27	38.8293
13.215	956.682	38.8977
13.22054	959.496	38.9661
13.2257	961.989	39.0344
13.2313	957.582	39.1028
13.238	954.023	39.1711
13.2436	950.909	39.2395
13.2489	948.205	39.3079
13.2537	951.715	39.3762
13.2601	954.354	39.44458
13.2658	953.5592	39.5129
13.271	955.657	39.5813
13.2777	960.637	39.6497
13.2831	961.562	39.718
13.2896	959.564	39.7864
13.2937	958.023	39.8547
13.2997	953.315	39.9231
13.306	949.659	39.9915
13.3084	956.604	40.0208

Data Header:			0.254_hd_dimension_typei_4545_r0			Time:	60.0269	s	4/15/2019 3:07:59 PM
Data Acquisition:	Timed
Station Name:	ft40.cfg
Test File Name:	monotonic_0.2540_typei_hd_4545_dimension.tst
Displacement	Force	Running Time
mm	N	s
13.31032	958.25	40.0305
13.3135	956.7829	40.0989
13.3201	955.931	40.1672
13.3259	953.7511	40.2356
13.3318	949.925	40.304
13.3373	950.618	40.3723
13.3446	950.388	40.4407
13.3494	954.175	40.509
13.3548	957.11	40.5774
13.3607	959.707	40.6458
13.3665	960.649	40.7141
13.372	957.303	40.7825
13.37799	960.048	40.85083
13.3833	957.042	40.9192
13.3899	953.091	40.9875
13.3953	950.731	41.0559
13.40051	948.926	41.1243
13.406	952.919	41.1926
13.4115	956.212	41.261
13.4164	957.316	41.3293
13.4232	958.529	41.3977
13.4302	959.458	41.4661
13.43437	960.824	41.5344
13.4402	958.506	41.6028
13.4456	953.852	41.6711
13.4512	952.578	41.7395
13.4567	948.971	41.8079
13.4626	949.331	41.8762
13.46791	955.233	41.94458
13.4742	955.985	42.0129
13.48	955.092	42.0813
13.4859	958.805	42.1497
13.4916	962.791	42.218
13.4974	958.667	42.2864
13.5034	957.1123	42.3547
13.5085	955.276	42.4231
13.5142	948.918	42.4915
13.5198	949.82	42.5598
13.5253	952.651	42.6282
13.5315	955.836	42.6965
13.5378	953.316	42.7649
13.5423	959.487	42.8333
13.5483	961.965	42.9016
13.554	960.412	42.97
13.5605	957.976	43.03833
13.5655	956.408	43.1067
13.5714	953.509	43.175
13.577	950.424	43.2434
13.58229	950.733	43.3118
13.5879	953.149	43.3801
13.5938	952.401	43.4485
13.5993	956.163	43.5168
13.6062	964.632	43.5852
13.6103	960.57	43.6536
13.617	958.712	43.7219
13.6223	958.033	43.7903
13.62759	954.036	43.8586
13.6343	952.299	43.927
13.6391	951.056	43.9954
13.6446	949.426	44.0637
13.6505	951.7597	44.13208
13.655	953.614	44.2004
13.6628	961.064	44.2688
13.6674	961.339	44.3372
13.674	961.036	44.4055
13.6801	959.201	44.4739
13.6847	956.612	44.5422
13.6908	954.273	44.6106
13.6966	951.461	44.679
13.7021	949.643	44.7473
13.7078	948.848	44.8157
13.7135	954.277	44.884
13.7188	958.164	44.9524
13.7254	960.052	45.0208
13.7305	960.923	45.0891
13.7373	960.368	45.1575
13.7429	956.58	45.22583
13.748	956.459	45.2942
13.754	954.001	45.3625
13.7588	949.66	45.4309
13.7651	946.332	45.4993
13.7707	950.093	45.5676
13.7758	956.216	45.636
13.782	956.38	45.7043
13.78768	960.302	45.7727
13.7939	959.923	45.8411
13.7982	958.739	45.9094
13.8048	959.6438	45.9778
13.8101	957.8158	46.0461
13.8162	951.661	46.1145
13.8218	948.11	46.1829
13.8281	950.057	46.2512
13.8326	953.121	46.31958
13.8381	955.009	46.3879
13.8452	958.729	46.4563
13.8512	961.751	46.5247
13.8556	958.9248	46.593
13.861	958.899	46.6614
13.8666	958.36	46.7297
13.8731	954.118	46.7981
13.8791	949.439	46.8665
[...]
14.3063	949.9671	51.9934
14.3117	948.917	52.0618
14.318	950.5235	52.1301
14.3234	953.114	52.1985
14.3294	956.19	52.2668
14.3359	956.133	52.3352
14.3403	959.275	52.4036
14.3465	962.194	52.4719
14.3523	955.216	52.5403
14.35757	954.985	52.6086
14.3628	949.994	52.677
14.3688	949.183	52.7454
14.3734	948.999	52.8137
14.3798	952.489	52.88208
14.3861	952.348	52.9504
14.3919	955.7309	53.0188
14.3966	960.219	53.0872
14.4024	960.73	53.1555
14.4091	958.923	53.2239
14.4145	954.792	53.2922
14.4196	951.025	53.3606
14.426	950.302	53.429
14.4318	949.488	53.4973
14.4358	949.454	53.5657
14.4431	950.594	53.634
14.4487	954.342	53.7024
14.4546	958.455	53.7708
14.4599	960.526	53.8391
14.4659	958.058	53.9075
14.4717	958.917	53.97583
14.4769	955.129	54.0442
14.4827	950.431	54.1125
14.4886	950.585	54.1809
14.4935	951.537	54.2493
14.4998	949.437	54.3176
14.5045	950.987	54.386
14.5108	957.9693	54.4543
14.5169	959.101	54.5227
14.5233	958.414	54.5911
14.5283	960.4	54.6594
14.5341	955.745	54.7278
14.5396	954.103	54.7961
14.5448	951.502	54.8645
14.5519	951.464	54.9329
14.5561	946.129	55.0012
14.5621	947.061	55.06958
14.5687	955.115	55.1379
14.5734	958.242	55.2063
14.5795	957.476	55.2747
14.5863	959.693	55.343
14.591	959.066	55.4114
14.597	955.734	55.4797
14.6028	952.1532	55.5481
14.608	951.067	55.6165
14.6151	947.628	55.6848
14.6198	946.897	55.7532
14.6251	952.343	55.8215
14.6306	956.797	55.8899
14.6366	956.441	55.9583
14.6419	957.357	56.0266
14.6474	958.326	56.095
14.6539	958.467	56.16333
14.6596	955.584	56.2317
14.6653	951.1026	56.3
14.6715	947.524	56.3684
14.6756	947.796	56.4368
14.6821	948.697	56.5051
14.6875	952.755	56.5735
14.6935	957.529	56.6418
14.6997	959.7746	56.7102
14.7047	958.179	56.7786
14.7099	959.019	56.8469
14.7159	957.75	56.9153
14.7224	953.529	56.9836
14.7277	948.45	57.052
14.7326	947.901	57.1204
14.7393	949.98	57.1887
14.7448	948.623	57.25708
14.7511	954.845	57.3254
14.7563	957.887	57.3938
14.7616	958.761	57.4622
14.7672	959.898	57.5305
14.774	958.983	57.5989
14.7795	956.911	57.6672
14.7854	948.657	57.7356
14.7904	948.109	57.804
14.7964	950.321	57.8723
14.8024	949.821	57.9407
14.8067	950.874	58.009
14.8125	955.027	58.0774
14.8195	957.3	58.1458
14.8252	959.208	58.2141
14.83	961.113	58.2825
14.8365	958.176	58.35083
14.84226	951.9	58.4192
14.84605	949.298	58.4875
14.85329	952.403	58.5559
14.8586	949.304	58.6243
14.8643	948.598	58.6926
14.8704	954.075	58.761
14.8762	956.98	58.8293
14.8816	957.583	58.8977
14.8866	960.4295	58.9661
14.8931	960.194	59.0344
14.8991	953.441	59.1028
14.90527	951.763	59.1711
14.9097	952.393	59.2395
14.9162	948.675	59.3079
14.9204	946.921	59.3762
14.9282	948.021	59.44458
14.932	954.661	59.5129
14.939	956.4776	59.5813
14.9439	958.434	59.6497
14.9499	960.687	59.718
14.9548	956.375	59.7864
14.9618	952.921	59.8547
14.967	953.872	59.9231
14.9727	950.227	59.9915
14.9758	955.0401	60.0208

Data Header:			0.254_hd_dimension_typei_4545_r0			Time:	68.9231	s	4/15/2019 3:08:08 PM
Data Acquisition:	Timed
Station Name:	ft40.cfg
Test File Name:	monotonic_0.2540_typei_hd_4545_dimension.tst
Displacement	Force	Running Time
mm	N	s
14.9762	957.715	60.0305
14.9798	949.25	60.06958
14.9829	950.881	60.1086
14.9857	958.59	60.1477
14.9882	945.1767	60.1868
14.9913	954.251	60.22583
14.995	954.561	60.2649
14.9986	944.785	60.304
15.0022	960.123	60.343
15.0056	948.522	60.38208
15.0094	951.367	60.4211
15.0124	956.409	60.4602
15.0152	949.405	60.4993
15.0191	954.589	60.53833
15.0213	952.968	60.5774
15.0248	950.369	60.6165
15.0281	957.254	60.6555
15.03072	949.5	60.69458
15.03529	952.789	60.7336
15.0377	959.237	60.7727
15.0408	947.465	60.8118
15.04415	957.0965	60.85083
15.0478	954.535	60.8899
15.0517	948.983	60.929
15.0539	960.347	60.968
15.0555	950.896	61.00708
15.0604	953.156	61.0461
15.0635	957.667	61.0852
15.0674	950.259	61.1243
15.07063	955.057	61.16333
15.0739	952.993	61.2024
15.0759	948.911	61.2415
15.0801	957.263	61.2805
15.0836	948.114	61.31958
15.0875	952.486	61.3586
15.0892	957.351	61.3977
15.0927	944.33	61.4368
15.0971	957.218	61.47583
15.0994	952.688	61.5149
15.1033	945.2406	61.554
15.106	958.06	61.593
15.1091	949.209	61.63208
15.1124	949.533	61.6711
15.1162	956.099	61.7102
15.1197	946.827	61.7493
15.1225	953.367	61.78833
15.1253	955.259	61.8274
15.1291	947.431	61.8665
15.1326	958.779	61.9055
15.13575	950.052	61.94458
15.1389	952.713	61.9836
15.1426	955.954	62.0227
15.1462	946.652	62.0618
15.1484	957.538	62.10083
15.1519	953.747	62.1399
15.1535	948.989	62.179
15.1574	958.144	62.218
15.1617	950.464	62.25708
15.165	951.6416	62.2961
15.1684	957.977	62.3352
15.1702	949.33	62.3743
15.1738	955.397	62.41333
15.17726	953.088	62.4524
15.1809	948.4	62.4915
15.1833	958.535	62.5305
15.1866	948.0575	62.56958
15.19043	952.867	62.6086
15.1938	956.193	62.6477
15.1977	946.299	62.6868
15.2	956.914	62.72583
15.2042	952.892	62.7649
15.2069	946.084	62.804
15.2106	957.0813	62.843
15.21456	949.6579	62.88208
15.2168	948.759	62.9211
15.2207	958.079	62.9602
15.22342	943.809	62.9993
15.2268	953.154	63.03833
15.2303	950.574	63.0774
15.234	947.473	63.1165
15.2366	954.797	63.1555
15.2399	949.375	63.19458
15.2431	953.22	63.2336
15.2466	954.36	63.2727
15.2493	948.029	63.3118
15.2526	956.023	63.35083
15.2557	954.354	63.3899
15.2586	947.455	63.429
15.262	961.238	63.468
15.2657	949.647	63.50708
15.2689	953.295	63.5461
15.2721	958.875	63.5852
15.2751	948.388	63.6243
15.2789	956.469	63.66333
15.2819	954.175	63.7024
15.2853	951.129	63.7415
15.2877	956.596	63.7805
15.2913	949.905	63.81958
15.2949	952.149	63.8586
15.2982	957.417	63.8977
15.30129	945.13	63.9368
15.3052	954.989	63.97583
15.3082	952.603	64.0149
15.3121	944.566	64.054
15.3141	958.805	64.093
15.3177	946.545	64.13208
15.3209	949.647	64.1711
15.3246	955.785	64.2102
15.3279	944.79	64.2493
15.3308	952.431	64.28833
15.3339	951.739	64.3274
15.3367	948.398	64.3665
15.341	955.836	64.4055
15.3439	947.114	64.44458
15.3461	950.761	64.4836
15.35003	954.056	64.5227
15.35348	942.949	64.5618
15.3566	956.483	64.60083
15.3596	951.009	64.6399
15.3632	946.584	64.679
15.3666	957.218	64.718
15.3692	946.5047	64.75708
15.373	951.691	64.7961
15.3767	957.287	64.8352
15.3804	947.618	64.8743
15.38263	954.629	64.91333
15.3867	955.061	64.9524
15.3888	946.692	64.9915
15.3928	957.407	65.0305
15.395	948.292	65.06958
15.3999	951.095	65.1086
15.4032	957.063	65.1477
15.40548	943.953	65.1868
15.4094	954.732	65.22583
15.4128	949.17	65.2649
15.4159	945.171	65.304
15.4176	957.381	65.343
15.423	943.453	65.38208
15.4257	947.351	65.4211
15.4285	953.111	65.4602
15.4311	943.843	65.4993
15.4349	950.699	65.53833
15.4384	950.798	65.5774
15.4425	943.914	65.6165
15.4444	952.761	65.6555
15.4482	944.5744	65.69458
15.4524	949.964	65.7336
15.4537	952.484	65.7727
15.4574	942.377	65.8118
15.4607	953.9743	65.85083
15.46391	946.691	65.8899
15.4676	945.466	65.929
15.4714	955.314	65.968
15.4741	945.538	66.00708
15.478	947.822	66.0461
15.4799	955.476	66.0852
15.4839	942.957	66.1243
15.4868	952.652	66.16333
15.48938	950.327	66.2024
15.4938	945.17	66.2415
15.4971	956.079	66.2805
15.4997	944.7	66.31958
15.50328	949.279	66.3586
15.5073	951.197	66.3977
15.5102	942.2782	66.4368
15.5127	951.641	66.47583
15.5165	946.889	66.5149
15.5189	940.682	66.554
15.5223	950.833	66.593
15.5252	941.184	66.63208
15.5288	942.823	66.6711
15.5322	948.324	66.7102
15.5421	-3.70313	66.7493
15.5426	-42.7918	66.78833
15.5445	-42.9352	66.8274
15.5466	-47.0285	66.8665
15.5497	-38.191	66.9055
15.5524	-45.5118	66.94458
15.5564	-41.9147	66.9836
15.5584	-39.8168	67.0227
15.5622	-47.3233	67.0618
15.5652	-36.8659	67.10083
15.5691	-42.5998	67.1399
15.5722	-46.0676	67.179
15.5756	-35.7639	67.218
15.5785	-47.428	67.25708
15.5812	-43.2839	67.2961
15.5851	-36.1065	67.3352
15.5881	-48.2291	67.3743
15.5919	-35.3495	67.41333
15.5955	-38.3488	67.4524
15.5989	-44.7832	67.4915
15.5999	-35.7598	67.5305
15.6047	-43.1199	67.56958
15.6077	-41.0573	67.6086
15.6121	-35.6812	67.6477
15.6139	-46.1576	67.6868
15.61729	-36.9053	67.72583
15.6207	-39.6639	67.7649
15.6245	-46.21138	67.804
15.6274	-32.8395	67.843
15.62967	-46.0306	67.88208
15.6332	-41.9801	67.9211
15.6374	-35.707	67.9602
15.6409	-49.3394	67.9993
15.6436	-38.3706	68.03833
15.6468	-41.8412	68.0774
15.6494	-46.5887	68.1165
15.6535	-38.0139	68.1555
15.6567	-45.8588	68.19458
15.65971	-42.4888	68.2336
15.6629	-38.4936	68.2727
15.6665	-47.8681	68.3118
15.6692	-37.30307	68.35083
15.6729	-44.1507	68.3899
15.6761	-46.5914	68.429
15.6793	-34.3136	68.468
15.6827	-47.6933	68.50708
15.68587	-40.8726	68.5461
15.6884	-36.7664	68.5852
15.69345	-47.86525	68.6243
15.696	-39.2364	68.66333
15.6984	-40.3643	68.7024
15.7023	-47.0088	68.7415
15.704	-35.2995	68.7805
15.7082	-43.6612	68.81958
15.7122	-41.44952	68.8586
15.7157	-36.0052	68.8977
15.7158	-39.7218	68.9172