File: data/processed_data_files/tensile/0.254_hd_dimension_typei_4545_r(4).dat
MTS793|BTW|ENU|1|2|.|/|:|1|0|0|A

Data Header:			0.254_hd_dimension_typei_4545_r0			Time:	20.0173	s	4/15/2019 3:15:31 PM
Data Acquisition:	Timed
Station Name:	ft40.cfg
Test File Name:	monotonic_0.2540_typei_hd_4545_dimension.tst
Displacement	Force	Running Time
mm	N	s
9.98073	-122.553	0.0224609
9.98217	-122.89	0.0908203
9.987998	-120.723	0.15918
9.9943	-117.002	0.227539
10.00036	-113.958	0.295898
10.00472	-114.275	0.364258
10.0111	-107.84	0.432617
10.0156	-98.2769	0.500977
10.0221	-94.70166	0.569336
10.02757	-94.696	0.637695
10.0327	-87.6327	0.706055
10.0392	-90.5895	0.774414
10.0446	-91.9099	0.842773
10.0517	-88.3184	0.911133
10.0554	-83.6134	0.979492
10.062	-83.7714	1.04785
10.0676	-79.033	1.11621
10.0739	-68.5992	1.18457
10.0795	-64.04554	1.25293
10.0851	-61.7594	1.32129
10.0911	-56.5046	1.38965
10.0965	-56.2084	1.45801
10.1016	-56.1633	1.52637
10.1068	-54.8768	1.59473
10.1126	-53.9177	1.66309
10.119	-52.2164	1.73145
10.1248	-47.7262	1.7998
10.1307	-38.366	1.86816
10.1365	-34.7609	1.93652
10.1414	-31.0506	2.00488
10.147	-25.5362	2.07324
10.15239	-24.2128	2.1416
10.1585	-20.8201	2.20996
10.16437	-20.8392	2.27832
10.1705	-20.7805	2.34668
10.1761	-22.1674	2.41504
10.1822	-17.6825	2.4834
10.1863	-10.0908	2.55176
10.1922	-4.18496	2.62012
10.198	0.3397949	2.68848
10.2034	4.34427	2.75684
10.2092	8.05436	2.8252
10.2148	11.9243	2.89355
10.2221	12.6685	2.96191
10.2272	12.34821	3.03027
10.2333	11.3844	3.09863
10.2376	12.382	3.16699
10.2445	21.58197	3.23535
10.2488	22.6719	3.30371
10.2563	32.8665	3.37207
10.2617	38.0527	3.44043
10.2668	40.3016	3.50879
10.2725	46.7038	3.57715
10.278	47.6709	3.64551
10.2838	47.0746	3.71387
10.2898	44.1713	3.78223
10.2958	47.7855	3.85059
10.30007	52.8144	3.91895
10.3071	56.5859	3.9873
10.3124	61.2265	4.05566
10.3174	69.6911	4.12402
10.325	74.4108	4.19238
10.3289	77.7071	4.26074
10.3352	83.1497	4.3291
10.3402	83.0987	4.39746
10.3459	79.9721	4.46582
10.3533	80.3306	4.53418
10.3582	88.3112	4.60254
10.36377	91.3732	4.6709
10.3698	94.4845	4.73926
10.375	100.836	4.80762
10.3802	105.652	4.87598
10.3864	112.523	4.94434
10.3934	115.895	5.0127
10.3979	118.893	5.08105
10.4042	114.439	5.14941
10.4096	115.988	5.21777
10.4152	120.724	5.28613
10.4209	120.6027	5.35449
10.4268	121.87	5.42285
10.4318	131.079	5.49121
10.4383	136.616	5.55957
10.4435	143.17	5.62793
10.4492	149.23	5.69629
10.45387	152.736	5.76465
10.4606	150.83	5.83301
10.4649	149.798	5.90137
10.4726	153.779	5.96973
10.4773	154.184	6.03809
10.4829	155.432	6.10645
10.49	159.049	6.1748
10.4957	164.74	6.24316
10.501	174.35	6.31152
10.5062	178.717	6.37988
10.51152	184.375	6.44824
10.5162	183.831	6.5166
10.5228	184.923	6.58496
10.5288	188.048	6.65332
10.5344	185.41	6.72168
10.5411	189.188	6.79004
10.5462	192.504	6.8584
10.5518	196.415	6.92676
10.5569	206.651	6.99512
10.5641	212.572	7.06348
10.5689	215.633	7.13184
10.5749	215.095	7.2002
10.58	219.402	7.26855
10.5856	223.297	7.33691
10.592	219.56	7.40527
10.5974	221.492	7.47363
10.6034	225.948	7.54199
10.6088	228.985	7.61035
10.6141	235.278	7.67871
10.6201	243.456	7.74707
10.6252	247.318	7.81543
10.6314	247.48	7.88379
10.6366	252.55	7.95215
10.6434	258.389	8.02051
10.6485	254.192	8.08887
10.6536	254.573	8.15723
10.65982	258.0311	8.22559
10.666	260.227	8.29395
10.6711	264.9502	8.3623
10.6772	273.308	8.43066
10.6828	277.442	8.49902
10.6881	279.477	8.56738
10.6947	284.973	8.63574
10.7003	290.008	8.7041
10.7061	287.225	8.77246
10.7107	286.453	8.84082
10.71609	289.758	8.90918
10.7219	291.616	8.97754
10.7281	295.907	9.0459
10.7341	302.555	9.11426
10.7394	308.281	9.18262
10.7449	309.668	9.25098
10.7504	316.423	9.31934
10.757	322.654	9.3877
10.7618	322.894	9.45605
10.76828	321.845	9.52441
10.7735	322.278	9.59277
10.779	321.829	9.66113
10.78545	326.112	9.72949
10.7911	330.03	9.79785
10.79724	337.517	9.86621
10.8025	340.613	9.93457
10.808	348.277	10.00293
10.81345	353.11	10.0713
10.8197	355.1196	10.1396
10.825	356.072	10.208
10.8305	355.143	10.2764
10.836	355.132	10.3447
10.8421	359.538	10.4131
10.8475	362.249	10.4814
10.8538	363.86	10.5498
10.85934	369.589	10.6182
10.8656	377.65	10.6865
10.871	384.836	10.7549
10.8772	386.489	10.8232
10.8815	390.6691	10.8916
10.8875	389.329	10.96
10.8931	388.758	11.02832
10.8984	389.706	11.09668
10.9051	392.415	11.165
10.9104	395.147	11.2334
10.9176	397.23	11.3018
10.9227	406.07	11.3701
10.92725	413.663	11.4385
10.9337	416.11	11.5068
10.9381	420.948	11.5752
10.9434	424.833	11.6436
10.9502	421.673	11.7119
10.9559	421.808	11.7803
10.9631	423.19	11.8486
10.9677	420.911	11.917
10.9738	423.773	11.9854
10.9783	432.991	12.0537
10.9843	440.356	12.12207
10.9895	444.431	12.19043
10.9961	449.314	12.2588
11.0006	452.761	12.3271
11.0071	452.077	12.3955
11.0129	452.18	12.4639
11.0189	452.554	12.5322
11.0235	450.966	12.6006
11.0297	451.301	12.6689
11.0354	458.383	12.7373
11.0429	467.255	12.8057
11.0461	469.755	12.874
11.0532	476.221	12.9424
11.0589	482.6619	13.0107
11.0638	482.3353	13.0791
11.07	483.338	13.1475
11.0746	484.677	13.21582
11.0827	482.247	13.28418
11.0881	482.3382	13.3525
11.0928	487.339	13.4209
11.098	496.1524	13.4893
11.1041	498.25	13.5576
11.1093	504.481	13.626
11.1153	509.961	13.6943
11.1214	515.122	13.7627
11.1272	515.47	13.8311
11.1314	517.3822	13.8994
11.1384	511.749	13.9678
11.1427	513.002	14.0361
11.1495	516.855	14.1045
11.15571	521.646	14.1729
11.1613	524.361	14.2412
11.1661	532.622	14.30957
11.1722	537.314	14.37793
11.1782	543.282	14.4463
11.183	546.56	14.5146
11.1896	545.776	14.583
11.195	543.165	14.6514
11.2008	541.102	14.7197
11.2063	546.332	14.7881
11.2122	547.336	14.8564
11.218	550.7959	14.9248
11.223	557.221	14.9932
11.229	563.191	15.0615
11.2353	570.234	15.1299
11.2403	575.024	15.1982
11.246	573.9931	15.2666
11.2525	572.481	15.335
11.2575	571.972	15.40332
11.2635	574.654	15.47168
11.2696	572.6394	15.54
11.2759	577.039	15.6084
11.2803	581.82	15.6768
11.28592	587.283	15.7451
11.2922	594.742	15.8135
11.2974	600.627	15.8818
11.3042	603.409	15.9502
11.3081	600.46	16.0186
11.31488	601.762	16.0869
11.3202	603.409	16.1553
11.3258	599.65	16.2236
11.3325	603.422	16.292
11.337	610.013	16.3604
11.3436	611.298	16.4287
11.34886	619.875	16.49707
11.3544	627.643	16.56543
11.3596	630.063	16.6338
11.3659	628.3858	16.7021
11.3725	629.754	16.7705
11.3773	633.01	16.8389
11.3836	627.914	16.9072
11.3892	628.061	16.9756
11.3956	634.687	17.0439
11.3998	635.981	17.1123
11.4061	644.309	17.1807
11.411	651.418	17.249
11.4175	655.582	17.3174
11.4231	654.22	17.3857
11.4282	657.806	17.4541
11.434	659.727	17.5225
11.4397	656.5531	17.59082
11.4452	654.943	17.65918
11.4518	658.485	17.7275
11.4565	661.236	17.7959
11.4624	667.066	17.8643
11.46823	672.906	17.9326
11.4746	678.456	18.001
11.4798	681.159	18.0693
11.48517	683.827	18.1377
11.4907	686.831	18.2061
11.4964	683.848	18.2744
11.5034	684.196	18.3428
11.5073	682.685	18.4111
11.5132	684.79	18.4795
11.5204	689.218	18.5479
11.52535	694.945	18.6162
11.5319	700.233	18.68457
11.5369	704.026	18.75293
11.5426	709.706	18.8213
11.5485	710.707	18.8896
11.554	710.704	18.958
11.5594	708.875	19.0264
11.56563	709.164	19.0947
11.571	710.25	19.1631
11.5764	714.047	19.2314
11.5828	717.194	19.2998
11.588	719.143	19.3682
11.5936	726.783	19.4365
11.5999	734.269	19.5049
11.6056	734.046	19.5732
11.611	734.5946	19.6416
11.6165	737.065	19.71
11.6222	733.766	19.77832
11.6282	734.138	19.84668
11.6341	736.387	19.915
11.6398	739.835	19.9834
11.6422	749.158	20.0127

Data Header:			0.254_hd_dimension_typei_4545_r0			Time:	40.0181	s	4/15/2019 3:15:51 PM
Data Acquisition:	Timed
Station Name:	ft40.cfg
Test File Name:	monotonic_0.2540_typei_hd_4545_dimension.tst
Displacement	Force	Running Time
mm	N	s
11.6417	746.59	20.0225
11.6493	743.731	20.09082
11.65451	742.615	20.15918
11.6603	745.741	20.2275
11.6647	747.3902	20.2959
11.6712	751.683	20.3643
11.6767	760.429	20.4326
11.6825	762.404	20.501
11.6885	765.244	20.5693
11.69475	769.727	20.6377
11.6995	771.096	20.7061
11.7052	768.355	20.7744
11.7113	766.982	20.8428
11.718	766.775	20.9111
11.7229	766.405	20.9795
11.7286	773.475	21.0479
11.7341	779.314	21.1162
11.7392	781.643	21.18457
11.7455	785.017	21.25293
11.751	791.884	21.3213
11.7564	792.101	21.3896
11.7624	790.623	21.458
11.7684	790.792	21.5264
11.7732	789.115	21.5947
11.7793	786.827	21.6631
11.7853	792.24	21.7314
11.7904	796.484	21.7998
11.7967	798.376	21.8682
11.802	802.317	21.9365
11.8069	810.934	22.0049
11.8132	811.915	22.0732
11.8191	810.324	22.1416
11.825	809.273	22.21
11.8302	810.12	22.27832
11.8369	808.334	22.34668
11.8413	811.156	22.415
11.8473	814.388	22.4834
11.8533	815.193	22.5518
11.8597	818.476	22.6201
11.8642	827.66	22.6885
11.8696	832.684	22.7568
11.8758	830.334	22.8252
11.8814	832.332	22.8936
11.8879	832.336	22.9619
11.8941	827.606	23.0303
11.89915	827.472	23.0986
11.9044	830.318	23.167
11.9105	831.689	23.2354
11.9162	833.07	23.3037
11.9229	843.891	23.37207
11.9274	847.03	23.44043
11.9326	848.475	23.5088
11.939	849.066	23.5771
11.9448	848.566	23.6455
11.9503	847.236	23.7139
11.9562	845.461	23.7822
11.9616	846.049	23.8506
11.96738	846.772	23.9189
11.972	848.118	23.9873
11.9791	856.505	24.0557
11.9851	860.1366	24.124
11.9894	862.232	24.1924
11.9957	864.108	24.2607
12.0022	864.259	24.3291
12.0078	864.262	24.3975
12.0134	862.879	24.46582
12.0174	860.653	24.53418
12.0244	859.274	24.6025
12.0297	862.282	24.6709
12.0352	867.154	24.7393
12.04106	870.28	24.8076
12.0466	874.331	24.876
12.0523	879.124	24.9443
12.05798	878.277	25.0127
12.06519	880.7489	25.0811
12.0693	878.843	25.1494
12.0758	874.894	25.2178
12.08103	872.529	25.2861
12.0865	872.757	25.3545
12.09276	878.944	25.4229
12.0982	878.462	25.4912
12.10471	884.467	25.55957
12.1094	888.82	25.62793
12.1166	888.911	25.6963
12.121	892.704	25.7646
12.1267	892.361	25.833
12.1331	889.208	25.9014
12.1388	885.524	25.9697
12.1437	885.123	26.0381
12.1491	889.045	26.1064
12.1557	887.534	26.1748
12.1604	893.601	26.2432
12.1672	898.577	26.3115
12.1714	897.804	26.3799
12.1776	903.166	26.4482
12.1832	903.955	26.5166
12.1897	900.752	26.585
12.1952	894.485	26.65332
12.2009	894.906	26.72168
12.2064	897.559	26.79
12.2108	894.584	26.8584
12.2183	898.348	26.9268
12.2234	906.913	26.9951
12.2282	907.07	27.0635
12.234	910.484	27.1318
12.2409	913.217	27.2002
12.2457	909.2995	27.2686
12.2519	905.235	27.3369
12.2584	903.646	27.4053
12.2639	904.48	27.4736
12.2693	902.052	27.542
12.2748	902.262	27.6104
12.28057	908.19	27.6787
12.2858	909.411	27.74707
12.2912	917.111	27.81543
12.2968	918.04	27.8838
12.3031	919.156	27.9521
12.3085	913.857	28.0205
12.3149	911.936	28.0889
12.3209	912.041	28.1572
12.3259	907.835	28.2256
12.3323	907.7309	28.2939
12.3384	912.367	28.3623
12.3432	915.769	28.4307
12.3485	922.43	28.499
12.3546	924.44	28.5674
12.3601	922.876	28.6357
12.3666	920.265	28.7041
12.3712	921.247	28.7725
12.3768	918.597	28.84082
12.383	915.349	28.90918
12.389	914.98	28.9775
12.3947	914.508	29.0459
12.3997	918.09	29.1143
12.4063	924.844	29.1826
12.4117	926.213	29.251
12.4175	927.633	29.3193
12.4236	926.881	29.3877
12.4291	927.394	29.4561
12.434	924.855	29.5244
12.441	920.858	29.5928
12.4468	919.838	29.6611
12.4515	918.502	29.7295
12.4565	919.761	29.7979
12.4627	925.281	29.8662
12.4682	930.324	29.93457
12.4746	930.42	30.00293
12.4804	929.928	30.0713
12.4844	933.151	30.1396
12.49022	929.821	30.208
12.4977	925.775	30.2764
12.5034	924.144	30.3447
12.5078	925.53	30.4131
12.5145	923.24	30.4814
12.5198	927.943	30.5498
12.5251	931.952	30.6182
12.5307	932.009	30.6865
12.53661	931.893	30.7549
12.542	937.396	30.8232
12.5489	936.293	30.8916
12.554	930.303	30.96
12.5596	928.87	31.02832
12.5651	927.875	31.09668
12.5715	924.932	31.165
12.57725	926.875	31.2334
12.582	933.562	31.3018
12.5885	931.572	31.3701
12.5943	933.5816	31.4385
12.5996	940.464	31.5068
12.6058	940.068	31.5752
12.6105	934.911	31.6436
12.6167	933.996	31.7119
12.6227	931.232	31.7803
12.6285	930.777	31.8486
12.6335	931.758	31.917
12.6397	931.045	31.9854
12.6457	933.0968	32.0537
12.6506	936.119	32.12207
12.656	941.456	32.19043
12.6622	941.416	32.2588
12.6681	938.896	32.3271
12.6734	937.808	32.3955
12.6799	934.162	32.4639
12.6838	935.008	32.5322
12.69068	931.922	32.6006
12.6966	932.651	32.6689
12.7008	932.299	32.7373
12.708	934.577	32.8057
12.7137	942.003	32.874
12.7189	941.68	32.9424
12.7238	943.64	33.0107
12.73	941.188	33.0791
12.7365	939.974	33.1475
12.7418	936.552	33.21582
12.7476	935.503	33.28418
12.75408	932.685	33.3525
12.7583	931.337	33.4209
12.76551	935.213	33.4893
12.7703	941.643	33.5576
12.7766	940.515	33.626
12.78345	943.817	33.6943
12.7874	945.361	33.7627
12.794	940.724	33.8311
12.7989	939.383	33.8994
12.8041	940.49	33.9678
12.81083	934.566	34.0361
12.8159	930.3938	34.1045
12.8215	933.921	34.1729
12.8272	939.712	34.2412
12.8333	940.685	34.30957
12.8384	943.915	34.37793
12.8458	945.972	34.4463
12.8503	942.821	34.5146
12.85689	941.71	34.583
12.8621	941.988	34.6514
12.8677	936.621	34.7197
12.8711	931.227	34.7881
12.8785	934.745	34.8564
12.8845	938.872	34.9248
12.8902	939.386	34.9932
12.8956	942.576	35.0615
12.9008	946.384	35.1299
12.9072	946.631	35.1982
12.91306	943.931	35.2666
12.9192	945.185	35.335
12.9249	938.595	35.40332
12.9302	935.003	35.47168
12.9362	936.444	35.54
12.9408	938.558	35.6084
12.9467	935.919	35.6768
12.9525	940.2265	35.7451
12.9583	945.713	35.8135
12.9645	947.653	35.8818
12.9704	947.717	35.9502
12.9755	947.554	36.0186
12.9815	942.5835	36.0869
12.9864	937.131	36.1553
12.99276	936.521	36.2236
12.9986	938.201	36.292
13.0048	937.927	36.3604
13.0103	939.979	36.4287
13.0152	943.18	36.49707
13.02149	946.685	36.56543
13.02677	948.607	36.6338
13.0324	948.49	36.7021
13.0391	944.371	36.7705
13.0449	940.283	36.8389
13.0494	939.009	36.9072
13.0554	938.328	36.9756
13.0619	936.394	37.0439
13.06671	937.061	37.1123
13.07296	941.39	37.1807
13.0783	946.52	37.249
13.0838	949.6355	37.3174
13.0894	951.244	37.3857
13.0948	945.731	37.4541
13.1013	942.653	37.5225
13.1068	944.296	37.59082
13.1128	938.759	37.65918
13.1187	936.464	37.7275
13.1236	938.959	37.7959
13.1294	939.4472	37.8643
13.1363	943.4939	37.9326
13.1402	947.574	38.001
13.1468	950.116	38.0693
13.1522	947.1087	38.1377
13.1583	944.623	38.2061
13.1634	946.23	38.2744
13.1698	941.084	38.3428
13.17528	936.379	38.4111
13.1813	938.474	38.4795
13.1861	939.6958	38.5479
13.1922	940.868	38.6162
13.1968	947.483	38.68457
13.2031	949.446	38.75293
13.20883	946.649	38.8213
13.2156	946.258	38.8896
13.2208	948.289	38.958
13.2261	942.757	39.0264
13.23165	937.75	39.0947
13.2379	939.539	39.1631
13.24363	938.468	39.2314
13.2498	939.78	39.2998
13.2551	945.135	39.3682
13.2606	948.708	39.4365
13.2656	948.269	39.5049
13.2716	948.274	39.5732
13.278	949.515	39.6416
13.2836	947.227	39.71
13.2882	941.819	39.77832
13.2952	940.489	39.84668
13.3003	939.312	39.915
13.3054	940.501	39.9834
13.3084	950.319	40.0127

Data Header:			0.254_hd_dimension_typei_4545_r0			Time:	60.0176	s	4/15/2019 3:16:11 PM
Data Acquisition:	Timed
Station Name:	ft40.cfg
Test File Name:	monotonic_0.2540_typei_hd_4545_dimension.tst
Displacement	Force	Running Time
mm	N	s
13.3095	943.2	40.0225
13.315	945.144	40.09082
13.3205	942.338	40.15918
13.32615	937.395	40.2275
13.3315	940.115	40.2959
13.3374	941.4588	40.3643
13.3437	944.322	40.4326
13.34875	949.699	40.501
13.355	952.862	40.5693
13.36076	950.611	40.6377
13.3663	945.114	40.7061
13.3715	947.147	40.7744
13.3775	943.701	40.8428
13.3829	939.191	40.9111
13.3891	939.7135	40.9795
13.3948	941.771	41.0479
13.4001	941.61	41.1162
13.4063	947.078	41.18457
13.4119	952.173	41.25293
13.4169	948.794	41.3213
13.4244	946.802	41.3896
13.42951	949.099	41.458
13.4344	945.705	41.5264
13.441	939.103	41.5947
13.4464	939.569	41.6631
13.4511	940.548	41.7314
13.4574	941.98	41.7998
13.4638	946.099	41.8682
13.4686	947.902	41.9365
13.474	949.802	42.0049
13.4796	948.503	42.0732
13.4855	949.905	42.1416
13.4917	947.204	42.21
13.4981	942.572	42.27832
13.5037	939.327	42.34668
13.5078	939.172	42.415
13.514	939.903	42.4834
13.52052	944.3197	42.5518
13.5265	946.402	42.6201
13.5314	947.136	42.6885
13.5374	949.928	42.7568
13.5427	951.017	42.8252
13.54866	948.043	42.8936
13.5549	944.777	42.9619
13.5595	942.168	43.0303
13.5656	940.687	43.0986
13.5724	938.995	43.167
13.5766	943.886	43.2354
13.5827	944.348	43.3037
13.5887	945.023	43.37207
13.5949	947.133	43.44043
13.5998	951.111	43.5088
13.6057	950.489	43.5771
13.6116	946.278	43.6455
13.6161	944.033	43.7139
13.6227	940.544	43.7822
13.6283	938.647	43.8506
13.6337	943.131	43.9189
13.639	944.263	43.9873
13.6458	941.055	44.0557
13.65106	945.1651	44.124
13.6569	952.745	44.1924
13.6628	950.857	44.2607
13.6685	949.159	44.3291
13.67483	949.534	44.3975
13.6796	942.737	44.46582
13.685	941.4342	44.53418
13.69	942.13	44.6025
13.6967	941.9079	44.6709
13.7023	941.43	44.7393
13.7084	944.161	44.8076
13.7131	950.729	44.876
13.7195	950.257	44.9443
13.7252	949.4209	45.0127
13.7312	948.627	45.0811
13.7365	946.2569	45.1494
13.7423	943.061	45.2178
13.7473	941.325	45.2861
13.7531	942.901	45.3545
13.7599	939.646	45.4229
13.7651	942.4837	45.4912
13.7707	948.69	45.55957
13.7762	949.3949	45.62793
13.782	948.746	45.6963
13.7865	948.547	45.7646
13.7937	948.366	45.833
13.7986	945.855	45.9014
13.8054	942.748	45.9697
13.8099	940.712	46.0381
13.8168	938.889	46.1064
13.8223	940.269	46.1748
13.8272	944.736	46.2432
13.8328	946.9986	46.3115
13.8393	949.732	46.3799
13.8441	949.833	46.4482
13.8512	949.678	46.5166
13.8564	948.031	46.585
13.8613	944.5307	46.65332
13.86778	941.288	46.72168
13.8728	938.139	46.79
13.8782	939.801	46.8584
13.8845	943.964	46.9268
[...]
14.3742	945.881	52.8057
14.3788	946.385	52.874
14.3859	947.506	52.9424
14.391	952.806	53.0107
14.3979	951.391	53.0791
14.4032	943.836	53.1475
14.4096	943.578	53.21582
14.4141	941.174	53.28418
14.4202	938.85	53.3525
14.4251	940.3949	53.4209
14.4313	942.8551	53.4893
14.4375	944.609	53.5576
14.4431	945.787	53.626
14.4488	951.424	53.6943
14.4547	951.541	53.7627
14.46	948.282	53.8311
14.4658	943.803	53.8994
14.4711	942.518	53.9678
14.4777	940.435	54.0361
14.4823	939.63	54.1045
14.4881	941.493	54.1729
14.494	941.616	54.2412
14.4996	944.294	54.30957
14.50563	949.098	54.37793
14.5111	950.979	54.4463
14.5167	948.074	54.5146
14.5226	946.58	54.583
14.52801	943.868	54.6514
14.5343	941.227	54.7197
14.5393	940.324	54.7881
14.54606	941.355	54.8564
14.5512	939.5799	54.9248
14.558	942.906	54.9932
14.5626	948.0816	55.0615
14.5689	949.1756	55.1299
14.5751	947.853	55.1982
14.5789	949.275	55.2666
14.5851	945.361	55.335
14.5909	942.189	55.40332
14.5969	942.544	55.47168
14.6022	941.029	55.54
14.6082	936.811	55.6084
14.613	938.197	55.6768
14.6194	946.838	55.7451
14.6258	947.582	55.8135
14.6307	946.834	55.8818
14.6355	950.209	55.9502
14.642	948.313	56.0186
14.6477	944.1394	56.0869
14.6529	942.346	56.1553
14.6594	941.113	56.2236
14.6651	935.506	56.292
14.67	936.9903	56.3604
14.676	945.506	56.4287
14.6827	946.784	56.49707
14.6874	946.705	56.56543
14.6935	949.095	56.6338
14.6993	947.66	56.7021
14.705	947.781	56.7705
14.7109	944.251	56.8389
14.7163	942.362	56.9072
14.72185	935.911	56.9756
14.7286	937.142	57.0439
14.7331	942.711	57.1123
14.739	943.3988	57.1807
14.7453	945.442	57.249
14.7492	949.252	57.3174
14.7567	949.599	57.3857
14.7618	949.7887	57.4541
14.7681	946.505	57.5225
14.77311	944.43	57.59082
14.78	937.954	57.65918
14.7844	937.203	57.7275
14.7896	940.286	57.7959
14.7958	940.778	57.8643
14.8018	942.831	57.9326
14.8067	946.5329	58.001
14.8138	948.004	58.0693
14.8185	951.938	58.1377
14.82431	948.307	58.2061
14.831	945.074	58.2744
14.8356	939.991	58.3428
14.8417	938.829	58.4111
14.8473	940.304	58.4795
14.85397	939.588	58.5479
14.8584	941.943	58.6162
14.8651	945.981	58.68457
14.87	947.127	58.75293
14.87569	951.273	58.8213
14.8818	950.291	58.8896
14.88778	947.789	58.958
14.892	941.142	59.0264
14.8996	938.2348	59.0947
14.9051	939.413	59.1631
14.9094	937.546	59.2314
14.9155	939.535	59.2998
14.9203	943.73	59.3682
14.9268	944.68	59.4365
14.93323	948.802	59.5049
14.9385	952.0625	59.5732
14.9446	949.595	59.6416
14.9506	943.716	59.71
14.9557	942.195	59.77832
14.961	941.591	59.84668
14.9679	938.428	59.915
14.9731	937.13	59.9834
14.975	949.318	60.0127

Data Header:			0.254_hd_dimension_typei_4545_r0			Time:	71.8425	s	4/15/2019 3:16:23 PM
Data Acquisition:	Timed
Station Name:	ft40.cfg
Test File Name:	monotonic_0.2540_typei_hd_4545_dimension.tst
Displacement	Force	Running Time
mm	N	s
14.9761	947.927	60.0225
14.9803	950.018	60.0713
14.9832	943.682	60.1201
14.9886	939.694	60.1689
14.9922	941.757	60.2178
14.9962	947.045	60.2666
14.9996	947.465	60.31543
15.0047	940.334	60.3643
15.0083	938.712	60.4131
15.0118	942.472	60.4619
15.0174	945.88	60.5107
15.0214	944.676	60.55957
15.0251	938.161	60.6084
15.0285	941.568	60.6572
15.0334	949.539	60.7061
15.0372	949.767	60.7549
15.0405	940.4729	60.8037
15.0443	938.808	60.8525
15.0498	943.93	60.9014
15.05318	948.787	60.9502
15.0573	944.754	60.999
15.0611	939.737	61.0479
15.0656	940.779	61.09668
15.0694	944.723	61.1455
15.0737	944.822	61.1943
15.077	941.445	61.2432
15.0823	937.498	61.292
15.0853	943.4209	61.34082
15.0897	948.901	61.3896
15.0932	947.862	61.4385
15.098	938.491	61.4873
15.1024	937.793	61.5361
15.1059	945.361	61.585
15.1108	948.509	61.6338
15.11408	944.728	61.6826
15.1177	938.969	61.7314
15.1225	941.914	61.7803
15.1259	947.139	61.8291
15.1301	945.771	61.87793
15.135	941.163	61.9268
15.1384	937.827	61.9756
15.1421	946.15	62.0244
15.1471	949.7724	62.0732
15.1515	945.082	62.12207
15.1557	937.114	62.1709
15.1594	938.986	62.2197
15.1625	945.554	62.2686
15.1665	947.602	62.3174
15.1724	940.378	62.3662
15.1759	937.826	62.415
15.1791	944.857	62.4639
15.1828	948.679	62.5127
15.1882	943.94	62.5615
15.1922	937.195	62.6104
15.1958	940.049	62.65918
15.1985	947.029	62.708
15.2033	948.869	62.7568
15.2089	942.428	62.8057
15.2127	936.491	62.8545
15.2154	940.858	62.90332
15.219	947.148	62.9521
15.225	944.575	63.001
15.2284	937.934	63.0498
15.2325	937.191	63.0986
15.2361	947.458	63.1475
15.2407	948.1	63.1963
15.244	941.466	63.2451
15.2487	935.339	63.2939
15.2532	941.425	63.3428
15.2559	949.576	63.3916
15.2599	949.469	63.44043
15.2648	939.333	63.4893
15.2677	937.056	63.5381
15.2727	943.333	63.5869
15.2771	947.14	63.6357
15.2811	942.8797	63.68457
15.2849	936.851	63.7334
15.28946	940.276	63.7822
15.2926	948.01	63.8311
15.2975	946.277	63.8799
15.3004	939.059	63.9287
15.30489	936.463	63.9775
15.3101	942.11	64.0264
15.314	949.8941	64.0752
15.3177	947.319	64.124
15.322	939.871	64.1729
15.3252	937.175	64.22168
15.3309	945.54	64.2705
15.3334	948.228	64.3193
15.3379	939.605	64.3682
15.3412	934.588	64.417
15.34639	941.752	64.46582
15.3504	948.559	64.5146
15.3548	943.131	64.5635
15.3585	934.9696	64.6123
15.3633	934.009	64.6611
15.3658	945.603	64.71
15.3711	949.476	64.7588
15.3744	942.208	64.8076
15.3784	937.507	64.8564
15.3827	938.164	64.9053
15.3872	947.1756	64.9541
15.3903	947.5155	65.00293
15.39441	939.347	65.0518
15.3995	935.447	65.1006
15.4037	943.336	65.1494
15.408	948.805	65.1982
15.411	941.532	65.24707
15.4152	932.79	65.2959
15.4196	935	65.3447
15.4234	945.895	65.3936
15.4274	948.2998	65.4424
15.4322	940.341	65.4912
15.4352	936.22	65.54
15.4393	940.853	65.5889
15.4448	946.6167	65.6377
15.4484	944.34	65.6865
15.4521	934.751	65.7354
15.4556	937.821	65.78418
15.46028	945.9895	65.833
15.4639	949.051	65.8818
15.4684	941.009	65.9307
15.4726	932.574	65.9795
15.47642	938.711	66.02832
15.4806	948.205	66.0771
15.4846	946.661	66.126
15.4877	938.592	66.1748
15.4925	935.95	66.2236
15.4957	940.901	66.2725
15.49963	947.455	66.3213
15.5048	940.891	66.3701
15.5084	934.635	66.4189
15.5138	936.498	66.4678
15.5167	947.3316	66.5166
15.521	947.622	66.56543
15.5241	938.828	66.6143
15.5291	934.754	66.6631
15.5332	942.129	66.7119
15.5374	948.71	66.7607
15.542	945.732	66.80957
15.5456	935.024	66.8584
15.55	936.5	66.9072
15.554	943.52	66.9561
15.557	946.078	67.0049
15.56215	937.617	67.0537
15.566	930.915	67.1025
15.5699	937.909	67.1514
15.5733	946.6925	67.2002
15.5777	942.656	67.249
15.5834	933.635	67.2979
15.5855	931.549	67.34668
15.5907	941.672	67.3955
15.5946	947.761	67.4443
15.5984	941.45	67.4932
15.6024	935.605	67.542
15.6064	940.014	67.59082
15.6107	943.929	67.6396
15.6142	943.369	67.6885
15.6187	936.5686	67.7373
15.6234	933.142	67.7861
15.6267	940.354	67.835
15.6316	946.212	67.8838
15.6345	941.647	67.9326
15.6404	932.017	67.9814
15.6433	932.381	68.0303
15.6472	941.954	68.0791
15.65097	944.639	68.12793
15.6554	936.244	68.1768
15.6587	934.3421	68.2256
15.6637	940.33	68.2744
15.6672	943.7818	68.3232
15.6713	941.608	68.37207
15.6762	933.903	68.4209
15.6799	933.372	68.4697
15.684	942.932	68.5186
15.6872	944.465	68.5674
15.6922	937.29	68.6162
15.69529	929.833	68.665
15.6991	934.109	68.7139
15.7039	943.677	68.7627
15.708	942.196	68.8115
15.7126	933.425	68.8604
15.7158	933.118	68.90918
15.7209	940.42	68.958
15.724	941.994	69.0068
15.7288	939.4668	69.0557
15.7313	930.996	69.1045
15.7376	935.042	69.15332
15.7413	943.638	69.2021
15.7448	941.801	69.251
15.74898	932.759	69.2998
15.7528	930.084	69.3486
15.7568	934.539	69.3975
15.762	940.3302	69.4463
15.7655	934.822	69.4951
15.7695	931.71	69.5439
15.7742	932.674	69.5928
15.7775	938.244	69.6416
15.7815	938.481	69.69043
15.7853	930.368	69.7393
15.7901	926.827	69.7881
15.7932	931.904	69.8369
15.7982	937.207	69.8857
15.8021	932.814	69.93457
15.8119	-45.2357	69.9834
15.8115	-46.7713	70.0322
15.8147	-40.0656	70.0811
15.81958	-37.8311	70.1299
15.82338	-42.4673	70.1787
15.82688	-49.4101	70.2275
15.8308	-42.0332	70.2764
15.8352	-35.9558	70.3252
15.8388	-42.0439	70.374
15.844	-47.85421	70.4229
15.8478	-49.3385	70.47168
15.8515	-40.2583	70.5205
15.8556	-37.7344	70.5693
15.8586	-41.4978	70.6182
15.8641	-47.7452	70.667
15.8668	-44.8261	70.71582
15.8722	-38.7784	70.7646
15.876	-39.4301	70.8135
15.87969	-44.8822	70.8623
15.8839	-45.4478	70.9111
15.8876	-39.1254	70.96
15.8928	-35.8801	71.0088
15.8951	-44.1071	71.0576
15.9	-48.0844	71.1064
15.904	-45.06781	71.1553
15.9082	-39.6245	71.2041
15.9125	-40.21339	71.25293
15.9154	-46.08976	71.3018
15.92061	-47.6488	71.3506
15.9254	-43.6999	71.3994
15.9284	-38.7523	71.4482
15.9328	-42.9396	71.49707
15.9368	-48.3505	71.5459
15.9408	-43.6008	71.5947
15.9448	-38.4505	71.6436
15.9493	-34.94878	71.6924
15.9534	-46.7683	71.7412
15.95691	-48.04837	71.79
15.9601	-36.0463	71.8291