File: data/processed_data_files/tensile/0.254_hd_uprint_typei_090_r(3).dat
MTS793|BTW|ENU|1|2|.|/|:|1|0|0|A

Data Header:			0.254_hd_uprint_typei_090_r0			Time:	20.0173	s	4/15/2019 3:52:46 PM
Data Acquisition:	Timed
Station Name:	ft40.cfg
Test File Name:	monotonic_0.2540_typei_hd_090_uprint.tst
Displacement	Force	Running Time
mm	N	s
9.980257	-186.039	0.0219727
9.9834	-184.064	0.090332
9.98974	-183.036	0.158691
9.99486	-179.813	0.227051
10.0006	-180.2885	0.29541
10.0058	-184.99	0.36377
10.0122	-181.101	0.432129
10.0183	-178.374	0.500488
10.0234	-178.0435	0.568848
10.0287	-176.678	0.637207
10.0337	-168.839	0.705566
10.0412	-161.368	0.773926
10.0461	-161.23	0.842285
10.05085	-156.832	0.910645
10.0579	-155.125	0.979004
10.0634	-157.203	1.04736
10.0691	-158.353	1.11572
10.0752	-154.069	1.184082
10.0801	-155.843	1.25244
10.0854	-153.92	1.3208
10.0907	-144.218	1.38916
10.097	-135.836	1.45752
10.1028	-135.699	1.52588
10.1091	-131.972	1.59424
10.1152	-126.304	1.6626
10.1202	-127.808	1.730957
10.1261	-127.687	1.79932
10.1313	-125.769	1.86768
10.1376	-126.381	1.93604
10.1424	-125.598	2.00439
10.1482	-118.218	2.07275
10.1534	-110.1	2.14111
10.1587	-107.694	2.20947
10.1648	-102.408	2.277832
10.1727	-97.5484	2.34619
10.1776	-97.1779	2.41455
10.1832	-94.2874	2.48291
10.1884	-93.6128	2.55127
10.1943	-95.2857	2.61963
10.1996	-95.1075	2.68799
10.2051	-89.2132	2.75635
10.2119	-82.03054	2.824707
10.21777	-78.3917	2.89307
10.2221	-71.1619	2.96143
10.2285	-65.6124	3.02979
10.2339	-66.381	3.09814
10.2402	-63.5414	3.1665
10.2448	-61.8412	3.23486
10.251	-64.12249	3.30322
10.2566	-61.6258	3.371582
10.262	-57.8987	3.43994
10.269	-53.061	3.5083
10.2741	-49.8367	3.57666
10.2792	-41.7319	3.64502
10.2858	-36.5931	3.71338
10.29072	-34.5457	3.78174
10.2962	-29.05407	3.8501
10.3016	-27.2479	3.918457
10.3082	-29.5734	3.98682
10.31296	-30.2715	4.05518
10.3192	-25.4218	4.12354
10.3255	-21.2884	4.19189
10.32967	-19.5372	4.26025
10.3364	-11.1791	4.32861
10.3418	-5.45267	4.39697
10.3477	-1.68839	4.465332
10.3541	4.24436	4.53369
10.3584	6.76263	4.60205
10.3652	5.09827	4.67041
10.3708	2.10589	4.73877
10.3763	6.85149	4.80713
10.3827	11.6552	4.87549
10.3882	12.8664	4.94385
10.3932	18.3607	5.012207
10.4001	26.9703	5.08057
10.405	29.91855	5.14893
10.4104	37.3667	5.21729
10.4168	40.7504	5.28564
10.4214	42.53632	5.354
10.4277	37.1619	5.42236
10.4326	41.5389	5.49072
10.4396	46.2152	5.559082
10.445	45.2389	5.62744
10.4502	50.0576	5.6958
10.4565	57.8885	5.76416
10.4618	63.3302	5.83252
10.468	69.8269	5.90088
10.4728	73.8264	5.96924
10.4787	76.8417	6.0376
10.4836	74.4081	6.105957
10.4902	76.895	6.17432
10.4956	80.2031	6.24268
10.501	80.13398	6.31104
10.5082	84.0942	6.37939
10.513	90.0334	6.44775
10.51838	95.281	6.51611
10.5242	102.278	6.58447
10.5304	106.711	6.652832
10.5358	108.589	6.72119
10.5419	108.818	6.78955
10.5464	113.2556	6.85791
10.552	114.52	6.92627
10.55803	113.56	6.99463
10.5642	116.162	7.06299
10.5708	121.0291	7.13135
10.575	125.65	7.199707
10.5813	132.291	7.26807
10.5877	139.216	7.33643
10.5925	140.374	7.40479
10.5984	144.228	7.47314
10.6043	146.9648	7.5415
10.60955	148.372	7.60986
10.61574	148.272	7.67822
10.6213	150.317	7.746582
10.62563	152.909	7.81494
10.6328	155.105	7.8833
10.6385	165.5938	7.95166
10.6445	172.865	8.02002
10.6503	175.764	8.08838
10.6544	176.063	8.15674
10.6616	183.293	8.2251
10.666	184.853	8.293457
10.6729	182.564	8.36182
10.6782	184.681	8.43018
10.6841	188.655	8.49854
10.6896	187.783	8.56689
10.6953	194.316	8.63525
10.7013	203.7402	8.70361
10.707	207.182	8.77197
10.7127	208.416	8.840332
10.7173	216.352	8.90869
10.7228	220.174	8.97705
10.7296	217.279	9.04541
10.7352	218.308	9.11377
10.7413	220.527	9.18213
10.7465	220.887	9.25049
10.7516	226.056	9.31885
10.7585	234.844	9.387207
10.7637	237.072	9.45557
10.77	240.824	9.52393
10.77459	248.36	9.59229
10.7807	252.806	9.66064
10.7861	253.389	9.729
10.7914	254.008	9.79736
10.7973	255.134	9.86572
10.8031	253.749	9.934082
10.8092	256.862	10.0024
10.8152	263.054	10.0708
10.8199	267.097	10.13916
10.8259	272.524	10.20752
10.8316	279.9617	10.2759
10.8375	285.424	10.3442
10.843	287.214	10.4126
10.848	290.022	10.481
10.8544	289.411	10.5493
10.8606	286.985	10.6177
10.8657	291.53	10.686
10.8704	295.408	10.7544
10.8771	297.93	10.8228
10.882	303.378	10.8911
10.8879	312.197	10.9595
10.8946	317.22	11.0278
10.8999	319.325	11.0962
10.9061	322.235	11.1646
10.9115	322.516	11.23291
10.91767	322.324	11.30127
10.922	323.797	11.3696
10.9286	327.984	11.438
10.9338	328.302	11.5063
10.9398	330.9458	11.5747
10.9447	341.593	11.6431
10.9523	348.298	11.7114
10.9564	351.312	11.7798
10.9618	355.74	11.8481
10.9676	357.024	11.9165
10.973	355.828	11.9849
10.9788	356.985	12.0532
10.9861	359.885	12.1216
10.9908	358.162	12.1899
10.9974	361.131	12.2583
11.0034	371.396	12.32666
11.008	376.985	12.39502
11.0145	380.774	12.4634
11.0201	386.784	12.5317
11.0251	389.293	12.6001
11.0318	389.644	12.6685
11.037	388.373	12.7368
11.0429	391.532	12.8052
11.048	388.786	12.8735
11.05389	389.048	12.9419
11.0595	400.489	13.0103
11.06535	408.78	13.0786
11.0722	410.735	13.147
11.0767	418.627	13.2153
11.0815	423.375	13.2837
11.0881	422.346	13.3521
11.0937	424.2	13.42041
11.0993	424.596	13.48877
11.1039	422.1738	13.5571
11.1102	422.471	13.6255
11.1159	429.107	13.6938
11.12238	437.199	13.7622
11.1286	440.0065	13.8306
11.1331	446.652	13.8989
11.1389	452.566	13.9673
11.1446	455.226	14.0356
11.1505	456.263	14.104
11.1565	455.741	14.1724
11.1621	454.332	14.2407
11.1673	452.96	14.3091
11.1738	458.84	14.3774
11.1798	463.7066	14.4458
11.1847	468.744	14.51416
11.19066	475.697	14.58252
11.1957	481.454	14.6509
11.202	485.244	14.7192
11.2075	488.4046	14.7876
11.2132	490.413	14.856
11.2194	485.731	14.9243
11.2247	486.77	14.9927
11.2308	490.275	15.061
11.2362	491.8728	15.1294
11.2412	495.765	15.1978
11.2475	504.347	15.2661
11.253	508.508	15.3345
11.259	515.256	15.4028
11.2646	519.1123	15.4712
11.2697	520.3092	15.5396
11.27519	518.4787	15.60791
11.2811	515.571	15.67627
11.2867	520.632	15.7446
11.2932	520.1001	15.813
11.2984	523.561	15.8813
11.3049	532.858	15.9497
11.3098	536.029	16.0181
11.3154	542.13	16.0864
11.3209	547.398	16.1548
11.3271	551.471	16.2231
11.3331	547.365	16.2915
11.3379	545.965	16.3599
11.34471	553.426	16.4282
11.34945	550.549	16.4966
11.3557	550.769	16.5649
11.3616	558.256	16.6333
11.3676	562.22	16.70166
11.3732	569.376	16.77002
11.3786	574.692	16.8384
11.3843	580.802	16.9067
11.3899	578.7478	16.9751
11.3954	578.182	17.0435
11.4012	582.06	17.1118
11.40731	580.515	17.1802
11.4124	578.083	17.2485
11.418	584.246	17.3169
11.4235	589.829	17.3853
11.4299	595.11	17.4536
11.4357	600.582	17.522
11.4405	607.53	17.5903
11.44566	607.504	17.6587
11.4523	606.648	17.7271
11.4572	610.127	17.79541
11.4631	608.463	17.86377
11.4692	607.117	17.9321
11.4761	610.505	18.0005
11.4799	614.8689	18.0688
11.4863	622.209	18.1372
11.4911	628.218	18.2056
11.498	631.563	18.2739
11.5027	633.791	18.3423
11.51	635.989	18.4106
11.51545	640.956	18.479
11.5206	638.947	18.5474
11.5264	638.142	18.6157
11.531	640.088	18.6841
11.53727	641.324	18.7524
11.5437	644.723	18.8208
11.5485	652.451	18.88916
11.5547	656.884	18.95752
11.5604	660.3	19.0259
11.5663	664.6665	19.0942
11.5721	668.696	19.1626
11.5778	665.954	19.231
11.5853	666.444	19.2993
11.5898	667.7373	19.3677
11.5945	666.529	19.436
11.6012	670.93	19.5044
11.607	675.72	19.5728
11.6116	681.077	19.6411
11.617	683.157	19.7095
11.6233	689.739	19.7778
11.6292	694.946	19.8462
11.6343	694.718	19.9146
11.6403	693.502	19.98291
11.6431	691.113	20.0122

Data Header:			0.254_hd_uprint_typei_090_r0			Time:	38.1011	s	4/15/2019 3:53:04 PM
Data Acquisition:	Timed
Station Name:	ft40.cfg
Test File Name:	monotonic_0.2540_typei_hd_090_uprint.tst
Displacement	Force	Running Time
mm	N	s
11.6431	699.216	20.022
11.6497	704.08	20.0903
11.6558	704.01	20.1587
11.6607	705.586	20.2271
11.66671	706.347	20.29541
11.6721	707.0387	20.36377
11.6778	703.861	20.4321
11.6831	705.862	20.5005
11.6899	707.69	20.5688
11.6951	715.107	20.6372
11.7015	720.3866	20.7056
11.7058	726.628	20.7739
11.7118	727.5708	20.8423
11.7176	729.888	20.9106
11.723	733.768	20.979
11.7299	732.963	21.0474
11.7353	729.738	21.1157
11.7395	731.24	21.1841
11.7466	733.0188	21.2524
11.7529	734.1593	21.3208
11.7574	742.203	21.38916
11.7645	748.811	21.45752
11.7686	748.429	21.5259
11.775	751.472	21.5942
11.7811	757.475	21.6626
11.7858	755.9	21.731
11.7916	752.134	21.7993
11.7972	754.898	21.8677
11.8036	753.938	21.936
11.8096	754.951	22.0044
11.8152	759.677	22.0728
11.82046	766.0199	22.1411
11.8255	769.705	22.2095
11.8325	770.813	22.2778
11.8385	779.6983	22.3462
11.8434	779.978	22.4146
11.8488	776.248	22.48291
11.854	775.506	22.55127
11.8596	777.8548	22.6196
11.866	777.3374	22.688
11.8715	778.057	22.7563
11.8776	784.69	22.8247
11.8822	786.602	22.8931
11.8878	790.893	22.9614
11.8935	797.085	23.0298
11.901	800.2785	23.0981
11.9061	798.72	23.1665
11.9096	795.93	23.2349
11.9176	795.886	23.3032
11.9223	795.075	23.3716
11.9287	796.414	23.4399
11.9338	800.3905	23.5083
11.9398	801.721	23.57666
11.9463	806.211	23.64502
11.9511	812.7926	23.7134
11.9571	816.724	23.7817
11.9622	816.463	23.8501
11.9691	814.956	23.9185
11.9738	812.273	23.9868
11.9798	812.211	24.0552
11.9848	813.703	24.1235
11.9909	814.54	24.1919
11.9963	814.775	24.2603
12.0033	820.241	24.3286
12.0074	826.64	24.397
12.0143	827.818	24.4653
12.0202	830.632	24.5337
12.0249	830.468	24.6021
12.0307	828.52	24.67041
12.0359	825.797	24.73877
12.0431	825.5387	24.8071
12.0481	825.775	24.8755
12.0539	825.157	24.9438
12.0598	827.761	25.0122
12.0661	837.4353	25.0806
12.0707	838.86	25.1489
12.0766	840.745	25.2173
12.083	842.052	25.2856
12.0869	842.378	25.354
12.0931	838.2	25.4224
12.0995	837.485	25.4907
12.1042	836.168	25.5591
12.1106	832.171	25.6274
12.116	834.23	25.6958
12.1213	842.404	25.76416
12.1283	845.603	25.83252
12.1334	844.742	25.9009
12.1399	849.006	25.9692
12.1449	848.892	26.0376
12.1502	845.866	26.106
12.1562	843.603	26.1743
12.1614	842.858	26.2427
12.1682	837.416	26.311
12.1725	836.951	26.3794
12.1802	843.2478	26.4478
12.1844	845.643	26.5161
12.1901	847.5152	26.5845
12.1965	851.839	26.6528
12.2014	850.88	26.7212
12.2074	849.5451	26.7896
12.2135	847.497	26.85791
12.219	843.0553	26.92627
12.2243	838.923	26.9946
12.2297	835.904	27.063
12.2356	842.399	27.1313
12.2411	845.119	27.1997
12.2471	845.327	27.2681
12.2533	851.001	27.3364
12.2592	852.028	27.4048
12.2645	851.719	27.4731
12.26952	849.082	27.5415
12.27533	845.349	27.6099
12.281	839.163	27.6782
12.2875	837.285	27.7466
12.294	838.68	27.8149
12.2988	839.736	27.8833
12.3042	841.926	27.95166
12.3101	846.345	28.02002
12.3161	846.438	28.0884
12.32239	849.823	28.1567
12.32754	848.868	28.2251
12.3321	844.561	28.2935
12.3385	836.667	28.3618
12.3445	834.119	28.4302
12.3509	835.359	28.4985
12.35497	833.921	28.5669
12.3607	835.823	28.6353
12.3662	841.855	28.7036
12.3728	840.7605	28.772
12.3774	843.339	28.8403
12.385	844.372	28.9087
12.3894	842.495	28.9771
12.39519	834.632	29.04541
12.4011	832.895	29.11377
12.4066	833.524	29.1821
12.4133	827.904	29.2505
12.419	829.404	29.3188
12.42372	834.067	29.3872
12.4291	833.454	29.4556
12.4353	836.581	29.5239
12.4403	839.761	29.5923
12.447	840.599	29.6606
12.4518	834.827	29.729
12.4583	829.349	29.7974
12.4636	831.1449	29.8657
12.4697	825.56	29.9341
12.4755	823.627	30.0024
12.4812	829.502	30.0708
12.4862	828.791	30.13916
12.4919	833.106	30.20752
12.4984	835.441	30.2759
12.5035	836.463	30.3442
12.5094	831.545	30.4126
12.5153	828.2655	30.481
12.521	830.069	30.5493
12.5263	824.8573	30.6177
12.5327	820.654	30.686
12.5378	822.411	30.7544
12.5439	825.087	30.8228
12.5492	828.091	30.8911
12.5553	830.769	30.9595
12.56151	831.603	31.0278
12.5671	829.629	31.0962
12.5723	826.639	31.1646
12.5781	827.643	31.23291
12.5832	822.779	31.30127
12.5888	820.235	31.3696
12.595	820.212	31.438
12.59985	817.804	31.5063
12.6065	823.271	31.5747
12.6119	826.4751	31.6431
12.6175	828.017	31.7114
12.6229	826.7373	31.7798
12.6298	827.621	31.8481
12.6346	827.372	31.9165
12.6401	822.225	31.9849
12.64604	819.577	32.0532
12.6515	816.786	32.1216
12.6581	815.806	32.1899
12.6629	818.268	32.2583
12.6688	822.178	32.32666
12.67423	823.927	32.39502
12.6805	823.998	32.4634
12.68592	826.4303	32.5317
12.6916	828.182	32.6001
12.6977	824.148	32.6685
12.7039	819.584	32.7368
12.7088	818.6203	32.8052
12.71456	815.681	32.8735
12.7202	816.048	32.9419
12.7254	820.104	33.0103
12.73123	820.588	33.0786
12.7377	819.733	33.147
12.743	825.307	33.2153
12.7488	826.888	33.2837
12.75382	822.654	33.3521
12.75977	820.259	33.42041
12.76643	818.494	33.48877
12.7713	814.872	33.5571
12.7775	813.681	33.6255
12.78242	815.369	33.6938
12.7889	818.402	33.7622
12.7946	816.25	33.8306
12.79849	819.263	33.8989
12.8055	825.0321	33.9673
12.811	823.539	34.0356
12.8167	819.8786	34.104
12.8226	816.819	34.1724
12.8286	815.152	34.2407
12.834	811.992	34.3091
12.8404	813.178	34.3774
12.8446	813.072	34.4458
12.8514	814.737	34.51416
12.8575	815.112	34.58252
12.8625	821.684	34.6509
12.8692	822.252	34.7192
12.8735	819.854	34.7876
12.8807	819.924	34.856
12.88658	814.752	34.9243
12.8909	813.071	34.9927
12.8962	811.442	35.061
12.902	810.003	35.1294
12.9092	808.982	35.1978
12.91215	811.982	35.2661
12.9194	819.279	35.3345
12.9255	819.691	35.4028
12.9301	818.2674	35.4712
12.9374	817.354	35.5396
12.9426	813.874	35.60791
12.9489	811.765	35.67627
12.95386	811.417	35.7446
12.9589	807.542	35.813
12.96576	804.751	35.8813
12.9698	809.735	35.9497
12.9763	814.233	36.0181
12.9831	816.065	36.0864
12.988	817.067	36.1548
12.9928	816.244	36.2231
12.9988	810.503	36.2915
13.0116	-59.7014	36.3599
13.013	-47.1904	36.4282
13.0166	-51.23267	36.4966
13.0227	-57.0892	36.5649
13.0289	-51.7454	36.6333
13.0338	-45.8826	36.70166
13.0398	-44.915	36.77002
13.04532	-42.6281	36.8384
13.0509	-39.9402	36.9067
13.0561	-43.5628	36.9751
13.0617	-43.4676	37.0435
13.0685	-44.6195	37.1118
13.0742	-49.1292	37.1802
13.07935	-54.5066	37.2485
13.0849	-52.491	37.3169
13.0913	-46.76289	37.3853
13.0965	-48.2474	37.4536
13.1025	-44.8936	37.522
13.1084	-39.4555	37.5903
13.11295	-42.1679	37.6587
13.1192	-43.0569	37.7271
13.1258	-43.89518	37.79541
13.1307	-48.10701	37.86377
13.1364	-55.1519	37.9321
13.1421	-53.7102	38.0005
13.1483	-49.8802	38.0688
13.1488	-42.56007	38.0884