File: data/processed_data_files/tensile/0.254_hd_dimension_typeiv_4545_r(2).dat
MTS793|BTW|ENU|1|2|.|/|:|1|0|0|A

Data Header:			0.254_hd_dimension_typeiv_4545_r0			Time:	20.019	s	4/13/2019 8:14:16 PM
Data Acquisition:	Timed
Station Name:	ft40.cfg
Test File Name:	monotonic_0.2540_typeiv_hd_4545_dimension.tst
Displacement	Force	Running Time
mm	N	s
-40.0345	-204.481	0.0231934
-40.0331	-207.175	0.0915527
-40.0266	-206.678	0.159912
-40.0201	-201.147	0.228271
-40.01474	-192.048	0.296631
-40.0094	-190.8544	0.36499
-40.0036	-186.53	0.43335
-39.9974	-180.015	0.501709
-39.9915	-180.604	0.570068
-39.9873	-179.828	0.638428
-39.9812	-173.944	0.706787
-39.9753	-174.373	0.775146
-39.9693	-175.504	0.843506
-39.9632	-171.329	0.911865
-39.9577	-162.262	0.980225
-39.9515	-159.615	1.048584
-39.9469	-156.1476	1.11694
-39.9405	-148.5282	1.1853
-39.9341	-148.212	1.25366
-39.9304	-146.054	1.32202
-39.9243	-142.911	1.39038
-39.9184	-143.423	1.45874
-39.91317	-145.678	1.5271
-39.9072	-139.797	1.595459
-39.9011	-133.772	1.66382
-39.8962	-130.096	1.73218
-39.8895	-125.484	1.80054
-39.8828	-119.583	1.8689
-39.8773	-116.59	1.93726
-39.8727	-112.261	2.00562
-39.8662	-111.786	2.07397
-39.8612	-109.836	2.142334
-39.8548	-112.188	2.21069
-39.8501	-107.749	2.27905
-39.8434	-102.016	2.34741
-39.8382	-99.2076	2.41577
-39.8329	-94.0333	2.48413
-39.8281	-90.2611	2.55249
-39.821	-84.9554	2.62085
-39.8157	-80.5113	2.689209
-39.80986	-78.11869	2.75757
-39.8045	-78.8874	2.82593
-39.7993	-78.7023	2.89429
-39.7929	-73.5662	2.96265
-39.7866	-71.077	3.03101
-39.7811	-69.3737	3.09937
-39.7762	-63.4659	3.16772
-39.7702	-59.8032	3.236084
-39.7651	-53.7216	3.30444
-39.7588	-48.1742	3.3728
-39.7525	-46.6858	3.44116
-39.7471	-45.9526	3.50952
-39.7425	-46.0398	3.57788
-39.7363	-42.098	3.64624
-39.7297	-41.5096	3.7146
-39.7257	-39.0228	3.782959
-39.7188	-31.1354	3.85132
-39.7135	-30.4397	3.91968
-39.7072	-24.4914	3.98804
-39.7013	-18.26664	4.0564
-39.6955	-14.7301	4.12476
-39.6901	-16.0908	4.19312
-39.6846	-13.2416	4.26147
-39.6795	-7.86382	4.329834
-39.674	-9.30416	4.39819
-39.6676	-6.55194	4.46655
-39.6616	-2.712775	4.53491
-39.6563	1.43118	4.60327
-39.651	5.93301	4.67163
-39.6439	14.0052	4.73999
-39.6399	18.2562	4.80835
-39.6323	16.1529	4.876709
-39.627	19.9858	4.94507
-39.6213	25.0443	5.01343
-39.6152	24.0602	5.08179
-39.6104	26.4044	5.15015
-39.6048	28.864	5.21851
-39.5982	31.56801	5.28687
-39.5934	37.1356	5.35522
-39.5873	42.3875	5.423584
-39.5818	46.3885	5.49194
-39.5769	47.988	5.5603
-39.5712	51.4934	5.62866
-39.565	57.5914	5.69702
-39.5582	56.43512	5.76538
-39.5525	57.9661	5.83374
-39.54789	61.8122	5.9021
-39.5438	62.6897	5.970459
-39.5379	68.8447	6.03882
-39.5311	73.5423	6.10718
-39.5244	78.2906	6.17554
-39.5191	80.2517	6.2439
-39.51363	84.2923	6.31226
-39.5081	89.64048	6.38062
-39.5023	88.7136	6.44897
-39.4974	90.9855	6.517334
-39.4906	92.4863	6.58569
-39.4849	93.7741	6.65405
-39.4793	99.2725	6.72241
-39.47369	103.455	6.79077
-39.4667	107.475	6.85913
-39.4631	109.925	6.92749
-39.4558	116.997	6.99585
-39.4509	121.028	7.064209
-39.445	121.762	7.13257
-39.4391	124.732	7.20093
-39.4342	126.243	7.26929
-39.4277	126.067	7.33765
-39.4225	131.642	7.40601
-39.4173	135.786	7.47437
-39.4118	137.14	7.54272
-39.4057	139.144	7.611084
-39.3999	147.737	7.67944
-39.3935	151.451	7.7478
-39.3882	152.439	7.81616
-39.3827	156.625	7.88452
-39.376	158.462	7.95288
-39.3716	157.114	8.02124
-39.36652	161.251	8.0896
-39.3595	165.492	8.157959
-39.3536	163.913	8.22632
-39.3485	168.718	8.29468
-39.3431	176.391	8.36304
-39.3374	181.656	8.4314
-39.3329	182.784	8.49976
-39.3263	187.297	8.56812
-39.3209	190.604	8.63647
-39.3156	188.027	8.704834
-39.3083	190.916	8.77319
-39.3021	194.935	8.84155
-39.299	194.211	8.90991
-39.292	197.082	8.97827
-39.2864	206.633	9.04663
-39.2812	211.855	9.11499
-39.2741	213.0806	9.18335
-39.2687	217.147	9.251709
-39.2638	219.612	9.32007
-39.2579	220.378	9.38843
-39.25211	222.417	9.45679
-39.2461	223.8179	9.52515
-39.2396	224.529	9.59351
-39.2352	227.407	9.66187
-39.2287	233.92	9.73022
-39.2238	239.842	9.798584
-39.2177	242.3398	9.86694
-39.2122	246.986	9.9353
-39.2072	250.825	10.0037
-39.2011	253.048	10.072
-39.195	252.973	10.1404
-39.1901	253.2737	10.20874
-39.1842	253.129	10.2771
-39.1787	256.018	10.3455
-39.17255	264.625	10.4138
-39.1661	267.576	10.4822
-39.1599	271.578	10.5505
-39.15517	276.903	10.6189
-39.1487	278.304	10.6873
-39.1437	282.408	10.7556
-39.1378	283.963	10.824
-39.1327	282.735	10.8923
-39.1264	281.471	10.9607
-39.12048	284.76	11.0291
-39.1157	289.76	11.0974
-39.1093	294.077	11.1658
-39.1046	298.203	11.2341
-39.0987	302.659	11.30249
-39.0928	305.595	11.37085
-39.0871	310.7623	11.4392
-39.081	313.2493	11.5076
-39.0745	312.43	11.5759
-39.0702	309.7395	11.6443
-39.06427	314.354	11.7126
-39.0581	318.174	11.781
-39.0534	317.923	11.8494
-39.0457	324.329	11.9177
-39.0406	329.9201	11.9861
-39.03521	333.186	12.0544
-39.0295	337.798	12.1228
-39.02375	340.79	12.1912
-39.0169	340.975	12.2595
-39.0131	337.873	12.3279
-39.0061	341.801	12.39624
-39.0005	346.76	12.4646
-38.9956	346.931	12.533
-38.9901	348.634	12.6013
-38.984	355.212	12.6697
-38.978	357.876	12.738
-38.9718	362.199	12.8064
-38.9672	367.02	12.8748
-38.9615	366.952	12.9431
-38.9561	364.818	13.0115
-38.9505	366.835	13.0798
-38.94426	372.696	13.1482
-38.939	370.084	13.2166
-38.9332	373.567	13.2849
-38.9266	376.882	13.3533
-38.9216	381.6283	13.4216
-38.916	385.9212	13.48999
-38.91	391.124	13.55835
-38.9048	390.632	13.6267
-38.9001	391.915	13.6951
-38.893	392.435	13.7634
-38.8871	397.9931	13.8318
-38.8815	396.809	13.9001
-38.8766	397.4346	13.9685
-38.8707	398.597	14.0369
-38.8647	404.4007	14.1052
-38.8598	408.973	14.1736
-38.85355	411.486	14.2419
-38.8473	413.722	14.3103
-38.84182	414.566	14.3787
-38.8365	417.557	14.447
-38.8306	418.261	14.5154
-38.8253	417.711	14.58374
-38.8192	419.824	14.6521
-38.8137	420.911	14.7205
-38.8069	423.829	14.7888
-38.8034	428.533	14.8572
-38.796	432.524	14.9255
-38.79192	433.713	14.9939
-38.7841	435.099	15.0623
-38.7796	440.201	15.1306
-38.77309	439.966	15.199
-38.7673	438.411	15.2673
-38.7632	440.5603	15.3357
-38.7554	438.51	15.4041
-38.7502	441.362	15.4724
-38.7454	445.266	15.5408
-38.73856	449.1908	15.6091
-38.7336	449.518	15.67749
-38.7274	452.804	15.74585
-38.72052	459.064	15.8142
-38.7171	458.195	15.8826
-38.7103	456.1803	15.9509
-38.70607	458.0614	16.0193
-38.6993	455.572	16.0876
-38.694	456.498	16.156
-38.6888	460.848	16.2244
-38.6827	464.319	16.2927
-38.6769	462.26	16.3611
-38.671	465.036	16.4294
-38.66547	472.916	16.4978
-38.6599	471.582	16.5662
-38.6533	468.675	16.6345
-38.6483	470.605	16.7029
-38.6421	469.566	16.77124
-38.63612	468.583	16.8396
-38.6319	472.154	16.908
-38.6256	471.692	16.9763
-38.6191	471.4472	17.0447
-38.6145	474.063	17.113
-38.6087	480.457	17.1814
-38.6022	481.392	17.2498
-38.5959	478.9426	17.3181
-38.5903	478.777	17.3865
-38.5853	476.462	17.4548
-38.5799	478.229	17.5232
-38.5744	477.856	17.5916
-38.5678	476.913	17.6599
-38.5625	475.904	17.7283
-38.5568	477.4249	17.7966
-38.5519	483.463	17.86499
-38.5459	484.107	17.93335
-38.54	484.214	18.0017
-38.5347	483.3912	18.0701
-38.5282	479.671	18.1384
-38.5226	481.71	18.2068
-38.5173	479.611	18.2751
-38.5121	477.349	18.3435
-38.5049	477.326	18.4119
-38.5006	480.384	18.4802
-38.4934	483.441	18.5486
-38.489	483.9895	18.6169
-38.4824	485.192	18.6853
-38.4778	483.854	18.7537
-38.4712	483.38	18.822
-38.4659	483.72	18.8904
-38.4603	482.26	18.95874
-38.4547	478.281	19.0271
-38.4472	477.7002	19.0955
-38.4429	480.508	19.1638
-38.4369	484.304	19.2322
-38.4312	481.6705	19.3005
-38.4272	485.289	19.3689
-38.4209	486.865	19.4373
-38.4138	483.4498	19.5056
-38.4067	482.918	19.574
-38.4037	484.543	19.6423
-38.397	479.732	19.7107
-38.3927	474.994	19.7791
-38.3863	478.767	19.8474
-38.3806	481.339	19.9158
-38.3757	479.709	19.9841
-38.3714	481.178	20.0134

Data Header:			0.254_hd_dimension_typeiv_4545_r0			Time:	40.0181	s	4/13/2019 8:14:36 PM
Data Acquisition:	Timed
Station Name:	ft40.cfg
Test File Name:	monotonic_0.2540_typeiv_hd_4545_dimension.tst
Displacement	Force	Running Time
mm	N	s
-38.3707	480.507	20.0232
-38.3655	480.118	20.0916
-38.3601	478.876	20.1599
-38.3546	477.9621	20.2283
-38.34874	479.979	20.2966
-38.3416	484.517	20.36499
-38.3363	484.107	20.43335
-38.3313	484.129	20.5017
-38.3246	485.074	20.5701
-38.3202	480.507	20.6384
-38.3137	482.173	20.7068
-38.3085	481.0899	20.7751
-38.3027	479.472	20.8435
-38.2971	474.886	20.9119
-38.2918	478.137	20.9802
-38.2856	483.419	21.0486
-38.2806	483.154	21.1169
-38.2746	484.0029	21.1853
-38.2695	485.021	21.2537
-38.2626	482.214	21.322
-38.2587	481.672	21.3904
-38.2515	481.033	21.45874
-38.2461	478.602	21.5271
-38.2412	473.01	21.5955
-38.2349	475.29	21.6638
-38.2283	482.905	21.7322
-38.2233	481.702	21.8005
-38.2171	482.949	21.8689
-38.2117	484.337	21.9373
-38.2064	484.482	22.0056
-38.201	482.439	22.074
-38.1948	480.758	22.1423
-38.189	479.397	22.2107
-38.1846	473.109	22.2791
-38.1774	475.3187	22.3474
-38.1721	478.848	22.4158
-38.1674	479.886	22.4841
-38.1601	480.393	22.55249
-38.1539	484.153	22.62085
-38.1491	483.662	22.6892
-38.1438	482.847	22.7576
-38.1384	480.821	22.8259
-38.1316	479.4906	22.8943
-38.12756	475.923	22.9626
-38.1204	474.835	23.031
-38.1153	478.456	23.0994
-38.1097	477.9	23.1677
-38.1035	481.566	23.2361
-38.0976	482.7262	23.3044
-38.092	484.709	23.3728
-38.0867	485.685	23.4412
-38.0812	482.471	23.5095
-38.0744	479.086	23.5779
-38.0701	475.241	23.64624
-38.0632	475.6366	23.7146
-38.0584	477.41	23.783
-38.05209	478.804	23.8513
-38.0466	480.165	23.9197
-38.0407	481.1759	23.988
-38.0353	482.352	24.0564
-38.0291	485.289	24.1248
-38.0234	482.836	24.1931
-38.0172	478.253	24.2615
-38.0123	476.33	24.3298
-38.0072	479.797	24.3982
-38.0018	474.917	24.4666
-37.99551	474.427	24.5349
-37.9892	478.1777	24.6033
-37.9844	479.411	24.6716
-37.9788	479.763	24.73999
-37.9727	483.173	24.80835
-37.96814	484.533	24.8767
-37.9615	479.6185	24.9451
-37.95504	477.913	25.0134
-37.949	479.7106	25.0818
-37.9441	476.839	25.1501
-37.9385	474.6813	25.2185
-37.9333	476.89	25.2869
-37.9268	478.303	25.3552
-37.9208	479.782	25.4236
-37.9155	481.768	25.4919
-37.9095	484.653	25.5603
-37.9044	479.903	25.6287
-37.899	478.023	25.697
-37.8932	481.007	25.7654
-37.8877	475.889	25.83374
-37.8826	474.088	25.9021
-37.8758	476.515	25.9705
-37.8698	477.18	26.0388
-37.8651	476.875	26.1072
-37.8582	479.2738	26.1755
-37.85342	482.889	26.2439
-37.8471	479.3793	26.3123
-37.8409	478.5928	26.3806
-37.8367	480.431	26.449
-37.8301	476.789	26.5173
-37.824	475.752	26.5857
-37.81786	475.519	26.6541
-37.8125	474.066	26.7224
-37.807	477.405	26.7908
-37.8023	478.292	26.8591
-37.79594	479.722	26.92749
-37.7894	477.299	26.99585
-37.78466	479.175	27.0642
-37.7777	481.425	27.1326
-37.7728	478.493	27.2009
-37.767	476.278	27.2693
-37.7618	477.0029	27.3376
-37.7564	474.537	27.406
-37.751	475.848	27.4744
-37.7451	478.2243	27.5427
-37.73864	475.871	27.6111
-37.7332	477.615	27.6794
-37.728	479.8013	27.7478
-37.722	482.839	27.8162
-37.7167	480.0983	27.8845
-37.7106	478.658	27.9529
-37.70462	476.945	28.02124
-37.6978	474.393	28.0896
-37.6933	475.125	28.158
-37.6882	476.446	28.2263
-37.6812	474.562	28.2947
-37.6766	475.863	28.363
-37.6709	480.424	28.4314
-37.6644	482.884	28.4998
-37.6594	479.941	28.5681
-37.6529	480.598	28.6365
-37.648	478.464	28.7048
-37.6425	474.276	28.7732
-37.6358	475.653	28.8416
-37.6313	476.6842	28.9099
-37.6258	472.36	28.9783
-37.61903	472.922	29.0466
-37.6138	479.007	29.11499
-37.6078	480.7605	29.18335
-37.6013	479.536	29.2517
-37.5962	479.393	29.3201
-37.5898	480.055	29.3884
-37.5848	475.7049	29.4568
-37.5793	475.386	29.5251
-37.57428	476.294	29.5935
-37.5678	474.156	29.6619
-37.5633	471.91	29.7302
-37.5579	478.144	29.7986
-37.5508	481.427	29.8669
-37.5453	478.777	29.9353
-37.5409	480.859	30.0037
-37.5336	480.372	30.072
-37.5286	477.529	30.1404
-37.523	475.9487	30.20874
-37.5166	474.869	30.2771
-37.5124	471.491	30.3455
-37.5042	470.296	30.4138
-37.4997	476.501	30.4822
-37.4942	477.524	30.5505
-37.4881	478.358	30.6189
-37.48143	480.759	30.6873
-37.4779	480.25	30.7556
-37.47155	478.142	30.824
-37.4663	477.663	30.8923
-37.45953	473.458	30.9607
-37.4549	470.736	31.0291
-37.4475	471.012	31.0974
-37.44289	475.197	31.1658
-37.43697	476.115	31.2341
-37.4319	478.001	31.30249
-37.4256	477.876	31.37085
-37.41996	478.262	31.4392
-37.4141	480.242	31.5076
-37.4084	477.205	31.5759
-37.40332	474.923	31.6443
-37.39719	470.276	31.7126
-37.3911	471.266	31.781
-37.3865	472.992	31.8494
-37.3798	474.239	31.9177
-37.3736	477.678	31.9861
-37.368	480.469	32.0544
-37.3626	478.234	32.1228
-37.3566	480.359	32.1912
-37.3513	480.715	32.2595
-37.3449	475.699	32.3279
-37.3409	470.093	32.39624
-37.3351	472.562	32.4646
-37.32806	475.543	32.533
-37.3234	472.776	32.6013
-37.318	477.066	32.6697
-37.3117	480.1	32.738
-37.3069	478.739	32.8064
-37.2998	480.832	32.8748
-37.29528	481.697	32.9431
-37.2892	476.33	33.0115
-37.2832	472.355	33.0798
-37.2789	473.215	33.1482
-37.2719	474.275	33.2166
-37.2663	471.813	33.2849
-37.2612	473.5217	33.3533
-37.2553	476.497	33.4216
-37.2493	476.533	33.48999
-37.2441	478.046	33.55835
-37.2382	481.778	33.6267
-37.2319	477.224	33.6951
-37.2264	472.616	33.7634
-37.2205	472.589	33.8318
-37.2156	475.006	33.9001
-37.21	472.6	33.9685
-37.205	473.142	34.0369
-37.1978	476.304	34.1052
-37.1927	475.387	34.1736
-37.1873	477.459	34.2419
-37.1803	479.223	34.3103
-37.1757	477.3262	34.3787
-37.1697	475.895	34.447
-37.1642	474.877	34.5154
-37.158	474.154	34.58374
-37.1528	471.09	34.6521
-37.14682	469.8486	34.7205
-37.1417	472.645	34.7888
-37.1358	474.005	34.8572
-37.1295	477.726	34.9255
-37.1234	478.602	34.9939
-37.1185	477.588	35.0623
-37.113	475.083	35.1306
-37.1053	477.492	35.199
-37.1008	474.009	35.2673
-37.0953	472.718	35.3357
-37.09026	471.644	35.4041
-37.0838	471.08	35.4724
-37.0774	471.869	35.5408
-37.0723	476.048	35.6091
-37.0681	476.358	35.67749
-37.0607	476.68	35.74585
-37.0568	475.59	35.8142
-37.0489	478.878	35.8826
-37.0439	476.092	35.9509
-37.0392	473.489	36.0193
-37.0332	472.261	36.0876
-37.0264	471.891	36.156
-37.0215	471.785	36.2244
-37.0156	475.679	36.2927
-37.0099	477.048	36.3611
-37.0034	474.168	36.4294
-36.9993	475.691	36.4978
-36.9921	479.54	36.5662
-36.9867	477.326	36.6345
-36.9802	475.062	36.7029
-36.9767	475.245	36.77124
-36.9702	472.437	36.8396
-36.9647	472.4119	36.908
-36.9582	473.049	36.9763
-36.9525	474.219	37.0447
-36.9476	471.7926	37.113
-36.9413	474.211	37.1814
-36.9351	481.025	37.2498
-36.9297	477.562	37.3181
-36.9245	475.709	37.3865
-36.9178	474.855	37.4548
-36.912	472.06	37.5232
-36.9075	469.996	37.5916
-36.9018	472.005	37.6599
-36.8959	473.57	37.7283
-36.8899	471.702	37.7966
-36.8838	472.465	37.86499
-36.87933	478.254	37.93335
-36.8731	477.874	38.0017
-36.867	475.126	38.0701
-36.8624	476.355	38.1384
-36.8561	473.356	38.2068
-36.85038	473.059	38.2751
-36.845	471.503	38.3435
-36.8385	471.814	38.4119
-36.8337	470.083	38.4802
-36.8273	471.697	38.5486
-36.8222	478.295	38.6169
-36.8155	476.72	38.6853
-36.8105	477.1452	38.7537
-36.8045	475.426	38.822
-36.7977	472.772	38.8904
-36.7934	472.24	38.95874
-36.7875	471.445	39.0271
-36.7818	469.401	39.0955
-36.7758	469.2518	39.1638
-36.7698	470.293	39.2322
-36.7658	474.998	39.3005
-36.7605	476.672	39.3689
-36.7536	477.375	39.4373
-36.7484	477.456	39.5056
-36.7414	474.947	39.574
-36.7362	474.742	39.6423
-36.7306	471.541	39.7107
-36.7245	468.88	39.7791
-36.7186	466.744	39.8474
-36.7131	472.348	39.9158
-36.7094	474.228	39.9841
-36.7058	470.659	40.0134

Data Header:			0.254_hd_dimension_typeiv_4545_r0			Time:	49.32373	s	4/13/2019 8:14:46 PM
Data Acquisition:	Timed
Station Name:	ft40.cfg
Test File Name:	monotonic_0.2540_typeiv_hd_4545_dimension.tst
Displacement	Force	Running Time
mm	N	s
-36.7037	469.595	40.0232
-36.7014	475.495	40.0623
-36.6981	470.311	40.1013
-36.6954	473.005	40.1404
-36.6917	474.163	40.1794
-36.6888	470.136	40.2185
-36.6857	475.1	40.2576
-36.681	471.148	40.2966
-36.6784	469.553	40.3357
-36.67495	478.041	40.3748
-36.67292	466.01	40.4138
-36.6682	474.648	40.4529
-36.666	476.6	40.4919
-36.6627	465.867	40.531
-36.6587	475.153	40.5701
-36.6562	472.646	40.6091
-36.6522	468.838	40.6482
-36.6491	475.18	40.6873
-36.647	471.169	40.7263
-36.64143	470.123	40.7654
-36.6393	476.7821	40.8044
-36.6365	471.718	40.8435
-36.6337	474.287	40.8826
-36.63	473.386	40.9216
-36.6274	472.2774	40.9607
-36.6231	476.758	40.9998
-36.6197	469.796	41.0388
-36.6174	474.062	41.0779
-36.6121	474.563	41.1169
-36.6105	469.748	41.156
-36.6077	473.321	41.1951
-36.6032	472.95	41.2341
-36.6014	471.068	41.2732
-36.5984	475.3952	41.3123
-36.5949	471.507	41.3513
-36.5912	472.252	41.3904
-36.587	472.412	41.4294
-36.5844	468.392	41.4685
-36.5805	476.478	41.5076
-36.5781	468.805	41.5466
-36.5745	470.28	41.5857
-36.5714	476.16	41.6248
-36.5673	466.513	41.6638
-36.5647	472.445	41.7029
-36.5615	475.161	41.7419
-36.5592	465.747	41.781
-36.5556	473.502	41.8201
-36.5521	472.842	41.8591
-36.54784	465.705	41.8982
-36.5449	474.3208	41.9373
-36.5417	471.2124	41.9763
-36.5391	469.943	42.0154
-36.5353	474.3811	42.0544
-36.5319	471.2157	42.0935
-36.5288	474.573	42.1326
-36.5269	472.991	42.1716
-36.5225	471.906	42.2107
-36.5182	475.288	42.2498
-36.51664	471.0217	42.2888
-36.51302	471.562	42.3279
-36.5098	476.187	42.3669
-36.506	470.281	42.406
-36.5029	473.986	42.4451
-36.5006	472.043	42.4841
-36.495	468.845	42.5232
-36.4942	473.975	42.5623
-36.4907	468.681	42.6013
-36.4869	473.32	42.6404
-36.48304	470.386	42.6794
-36.4805	467.845	42.7185
-36.47673	473.305	42.7576
-36.474	467.5217	42.7966
-36.4714	471.222	42.8357
-36.4667	474.513	42.8748
-36.4644	466.478	42.9138
-36.4605	472.635	42.9529
-36.457	474.669	42.9919
-36.4547	463.209	43.031
-36.4506	473.227	43.0701
-36.4485	469.742	43.1091
-36.4438	467.185	43.1482
-36.4419	474.5607	43.1873
-36.4373	469.684	43.2263
-36.4347	470.448	43.2654
-36.4318	472.832	43.3044
-36.4277	469.794	43.3435
-36.4251	473.0611	43.3826
-36.422	472.88	43.4216
-36.4181	469.499	43.4607
-36.4156	475.903	43.4998
-36.4124	470.038	43.5388
-36.4079	472.326	43.5779
-36.4061	475.314	43.6169
-36.403	468.252	43.656
-36.3993	475.185	43.6951
-36.3959	472.4415	43.7341
-36.3921	470.458	43.7732
-36.3896	473.679	43.8123
-36.3866	469.207	43.8513
-36.3827	470.917	43.8904
-36.3792	472.385	43.9294
-36.376	467.621	43.9685
-36.372	472.892	44.0076
-36.3709	470.272	44.0466
-36.3654	467.494	44.0857
-36.3636	476.4	44.1248
-36.3595	465.765	44.1638
-36.3557	470.524	44.2029
-36.35305	472.498	44.2419
-36.3512	463.094	44.281
-36.3468	473.4248	44.3201
-36.3436	470.8205	44.3591
-36.3407	466.126	44.3982
-36.3371	473.1622	44.4373
-36.3343	469.556	44.4763
-36.3314	467.411	44.5154
-36.3268	473.339	44.5544
-36.3236	469.45	44.5935
-36.32103	473.81	44.6326
-36.3175	470.364	44.6716
-36.3144	469.642	44.7107
-36.3108	475.407	44.7498
-36.3084	468.837	44.7888
-36.3045	471.285	44.8279
-36.3012	473.392	44.8669
-36.299	468.292	44.906
-36.29496	472.616	44.9451
-36.2915	472.291	44.9841
-36.2882	467.3381	45.0232
-36.2848	474.0477	45.0623
-36.28299	467.0788	45.1013
-36.2773	468.233	45.1404
-36.27557	470.354	45.1794
-36.2726	466.103	45.2185
-36.2687	473.547	45.2576
-36.2637	464.628	45.2966
-36.2619	467.845	45.3357
-36.2585	473.798	45.3748
-36.2553	463.951	45.4138
-36.2521	468.545	45.4529
-36.24852	472.895	45.4919
-36.2465	462.03	45.531
-36.2418	470.842	45.5701
-36.2402	470.154	45.6091
-36.2355	464.212	45.6482
-36.2324	473.571	45.6873
-36.2278	466.141	45.7263
-36.2264	468.327	45.7654
-36.2237	471.574	45.8044
-36.2198	466.512	45.8435
-36.2174	471.794	45.8826
-36.21233	470.238	45.9216
-36.2102	469.523	45.9607
-36.2074	473.714	45.9998
-36.2021	467.508	46.0388
-36.19986	470.264	46.0779
-36.1963	472.672	46.1169
-36.1926	465.483	46.156
-36.1899	472.094	46.1951
-36.1876	469.585	46.2341
-36.1827	467.94	46.2732
-36.1792	471.028	46.3123
-36.1772	466.071	46.3513
-36.1741	469.132	46.3904
-36.17123	468.051	46.4294
-36.1675	465.963	46.4685
-36.1643	468.78	46.5076
-36.1609	467.1329	46.5466
-36.1573	465.0593	46.5857
-36.1547	472.471	46.6248
-36.1528	461.381	46.6638
-36.148	468.14	46.7029
-36.1451	471.0444	46.7419
-36.1415	461.301	46.781
-36.13937	470.536	46.8201
-36.1352	467.234	46.8591
-36.1321	463.027	46.8982
-36.12812	470.129	46.9373
-36.1252	466.473	46.9763
-36.1215	466.452	47.0154
-36.1181	470.3588	47.0544
-36.1162	463.071	47.0935
-36.11237	470.627	47.1326
-36.109	468.551	47.1716
-36.1063	466.018	47.2107
-36.1028	472.078	47.2498
-36.1016	464.291	47.2888
-36.09594	467.1	47.3279
-36.0932	469.4256	47.3669
-36.0887	464.3739	47.406
-36.0857	467.1376	47.4451
-36.0832	467.725	47.4841
-36.0801	462.561	47.5232
-36.0771	467.873	47.5623
-36.0731	462.719	47.6013
-36.07	464.11	47.6404
-36.0677	465.171	47.6794
-36.0632	461.637	47.7185
-36.0599	467.578	47.7576
-36.0568	461.451	47.7966
-36.0538	461.358	47.8357
-36.0504	466	47.8748
-36.0466	459.004	47.9138
-36.0444	463.3689	47.9529
-36.0403	465.737	47.9919
-36.0378	456.171	48.031
-36.0354	462.076	48.0701
-36.0301	457.404	48.1091
-36.027	442.843	48.1482
-36.0222	-25.1188	48.1873
-36.02092	-42.48774	48.2263
-36.017	-42.0398	48.2654
-36.0136	-38.8296	48.3044
-36.0112	-44.1101	48.3435
-36.0074	-38.7807	48.3826
-36.0034	-41.1995	48.4216
-36.0007	-42.3372	48.4607
-35.9994	-37.4417	48.4998
-35.9955	-42.3416	48.5388
-35.9924	-41.8278	48.5779
-35.9881	-37.7114	48.6169
-35.9854	-43.2947	48.656
-35.9829	-39.05637	48.6951
-35.9778	-40.3102	48.7341
-35.9747	-44.33252	48.7732
-35.97332	-40.1005	48.8123
-35.9687	-44.0512	48.8513
-35.9668	-42.7175	48.8904
-35.96151	-42.8643	48.9294
-35.9595	-45.4847	48.9685
-35.9556	-40.1428	49.0076
-35.9528	-44.518	49.0466
-35.9493	-44.2841	49.0857
-35.9455	-37.5574	49.1248
-35.9413	-47.5756	49.1638
-35.94	-42.9075	49.2029
-35.9367	-38.4714	49.2419
-35.93367	-47.621	49.281
-35.931	-38.3208	49.3103