File: data/processed_data_files/tensile/0.254_solid_uprint_typeiv_4545_r(2).dat
MTS793|BTW|ENU|1|2|.|/|:|1|0|0|A

Data Header:			0.254_solid_uprint_typeiv_4545_r0			Time:	20.0176	s	4/13/2019 6:47:48 PM
Data Acquisition:	Timed
Station Name:	ft40.cfg
Test File Name:	Type IV_Monotonic.tst
Displacement	Force	Running Time
mm	N	s
-40.0453	6.01632	0.0227051
-40.0458	6.55177	0.0910645
-40.0403	9.77348	0.159424
-40.0337	12.47331	0.2277832
-40.0295	14.93812	0.296143
-40.0229	22.30237	0.364502
-40.0166	29.6039	0.432861
-40.0111	33.4526	0.5012207
-40.0046	35.7483	0.56958
-39.9997	40.1462	0.637939
-39.9939	42.0354	0.706299
-39.9902	44.5123	0.7746582
-39.9823	46.6547	0.843018
-39.9776	48.0907	0.911377
-39.9716	51.8011	0.979736
-39.9664	57.79163	1.0481
-39.9603	64.2629	1.11646
-39.95425	68.2202	1.18481
-39.9492	73.81205	1.25317
-39.9436	76.4851	1.32153
-39.9387	78.8885	1.38989
-39.9319	81.4673	1.458252
-39.9251	84.7714	1.52661
-39.9201	84.9434	1.59497
-39.9144	83.8185	1.66333
-39.9093	92.5328	1.73169
-39.9027	98.76857	1.80005
-39.8974	102.9865	1.86841
-39.8926	109.3374	1.93677
-39.8859	115.152	2.005127
-39.8796	114.26	2.07349
-39.8745	118.333	2.14185
-39.8692	121.945	2.21021
-39.86396	121.913	2.27856
-39.8571	119.487	2.34692
-39.8522	126.7402	2.41528
-39.847	134.971	2.48364
-39.8412	137.171	2.552002
-39.8356	142.132	2.62036
-39.8303	148.201	2.68872
-39.8234	150.387	2.75708
-39.8175	154.342	2.82544
-39.811	156.99	2.8938
-39.8066	157.968	2.96216
-39.8007	156.125	3.03052
-39.796	160.341	3.098877
-39.7903	168.119	3.16724
-39.7844	170.899	3.2356
-39.7778	174.799	3.30396
-39.771	182.665	3.37231
-39.7664	186.783	3.44067
-39.7604	188.71	3.50903
-39.7541	193.2718	3.57739
-39.74942	193.15	3.645752
-39.7449	192.728	3.71411
-39.73819	195.597	3.78247
-39.73175	202.328	3.85083
-39.7267	203.623	3.91919
-39.7196	209.102	3.98755
-39.7147	214.558	4.05591
-39.7092	218.666	4.12427
-39.7036	225.682	4.192627
-39.6981	228.088	4.26099
-39.693	228.468	4.32935
-39.6871	226.284	4.39771
-39.68121	230.661	4.46606
-39.6745	233.343	4.53442
-39.6697	235.932	4.60278
-39.6637	242.638	4.67114
-39.6575	247.432	4.739502
-39.6528	250.975	4.80786
-39.6472	257.306	4.87622
-39.6412	262.215	4.94458
-39.63567	262.302	5.01294
-39.6301	261.067	5.0813
-39.6236	265.603	5.14966
-39.6187	270.584	5.21802
-39.6137	268.447	5.286377
-39.6072	272.6235	5.35474
-39.6009	279.921	5.4231
-39.596	282.962	5.49146
-39.5886	289.246	5.55981
-39.5841	295.3688	5.62817
-39.5787	296.682	5.69653
-39.5726	294.808	5.76489
-39.5672	297.307	5.833252
-39.5608	302	5.90161
-39.5557	300.613	5.96997
-39.5505	304.334	6.03833
-39.5449	308.646	6.10669
-39.5388	314.45	6.17505
-39.5324	319.841	6.24341
-39.5278	325.514	6.31177
-39.5226	328.324	6.380127
-39.5152	327.845	6.44849
-39.5106	329.118	6.51685
-39.5037	335.079	6.58521
-39.4991	333.014	6.65356
-39.4927	335.0679	6.72192
-39.4885	338.139	6.79028
-39.4831	342.379	6.85864
-39.4756	347.035	6.927002
-39.4715	353.7912	6.99536
-39.4644	356.99	7.06372
-39.4584	357.512	7.13208
-39.4533	361.725	7.20044
-39.448	364.528	7.2688
-39.44223	363.295	7.33716
-39.4369	365.13	7.40552
-39.4308	368.35	7.473877
-39.4254	368.782	7.54224
-39.4188	377.806	7.6106
-39.41354	382.45	7.67896
-39.4078	385.102	7.74731
-39.4008	386.743	7.81567
-39.3965	391.197	7.88403
-39.3911	395.282	7.95239
-39.3846	393.994	8.020752
-39.3796	394.54	8.08911
-39.3737	397.961	8.15747
-39.36747	397.724	8.22583
-39.3607	402.92	8.29419
-39.3561	408.762	8.36255
-39.3511	413.235	8.43091
-39.3461	414.278	8.49927
-39.3399	419.1871	8.567627
-39.3332	424.128	8.63599
-39.3288	422.514	8.70435
-39.322	422.745	8.77271
-39.31506	424.2984	8.84106
-39.3115	425.331	8.90942
-39.3045	429.614	8.97778
-39.3006	434.264	9.04614
-39.29427	437.836	9.114502
-39.28878	437.448	9.18286
-39.28257	444.863	9.25122
-39.2766	449.471	9.31958
-39.2708	449.597	9.38794
-39.2658	448.415	9.4563
-39.2598	449.958	9.52466
-39.2559	450.112	9.59302
-39.2488	453.128	9.661377
-39.2431	455.873	9.72974
-39.2368	458.483	9.7981
-39.2305	461.771	9.86646
-39.2246	467.035	9.93481
-39.2195	472.921	10.0032
-39.2143	473.088	10.0715
-39.2093	474.167	10.1399
-39.2033	474.62	10.2083
-39.1961	473.331	10.2766
-39.1916	476.397	10.345
-39.1868	477.927	10.41333
-39.1802	479.732	10.4817
-39.1739	480.976	10.55
-39.1684	486.19	10.6184
-39.1622	492.772	10.6868
-39.1568	493.773	10.7551
-39.1516	496.19	10.8235
-39.14571	495.929	10.8918
-39.1387	492.2948	10.9602
-39.1343	496.048	11.0286
-39.1293	497.379	11.0969
-39.1229	496.2478	11.1653
-39.1179	496.363	11.2336
-39.1115	503.853	11.302
-39.1051	509.484	11.3704
-39.1007	509.5415	11.4387
-39.094	513.497	11.50708
-39.08857	514.414	11.5754
-39.0831	512.434	11.6438
-39.0773	513.428	11.7122
-39.0711	513.2821	11.7805
-39.0657	512.188	11.8489
-39.06036	511.83	11.9172
-39.0542	517.851	11.9856
-39.049	522.483	12.054
-39.0433	523.309	12.1223
-39.038	524.232	12.1907
-39.0309	528.035	12.259
-39.02673	526.554	12.3274
-39.0204	525.504	12.3958
-39.0158	526.198	12.4641
-39.0092	524.906	12.5325
-39.0038	523.839	12.60083
-38.9965	527.671	12.6692
-38.9915	532.525	12.7375
-38.98587	532.285	12.8059
-38.9814	534.9455	12.8743
-38.9748	536.932	12.9426
-38.9687	538.016	13.011
-38.9634	537.088	13.0793
-38.958	537.139	13.1477
-38.9527	536.2041	13.2161
-38.9453	532.784	13.2844
-38.9397	534.19	13.3528
-38.9353	538.067	13.4211
-38.9298	537.977	13.4895
-38.9236	539.877	13.5579
-38.9184	545.464	13.6262
-38.913	545.756	13.69458
-38.9072	546.319	13.7629
-38.9018	545.254	13.8313
-38.8952	540.518	13.8997
-38.8891	537.052	13.968
-38.88446	539.3941	14.0364
-38.878	542.866	14.1047
-38.8723	541.174	14.1731
-38.8664	544.723	14.2415
-38.8619	547.683	14.3098
-38.8554	548.3092	14.3782
-38.8493	550.374	14.4465
-38.8441	549.166	14.5149
-38.8383	545.793	14.5833
-38.8319	541.211	14.6516
-38.82658	543.822	14.72
-38.8215	543.5434	14.78833
-38.816	542.801	14.8567
-38.8098	547.148	14.925
-38.8041	550.11	14.9934
-38.7982	548.818	15.0618
-38.7928	550.011	15.1301
-38.787	551.803	15.1985
-38.7816	547.281	15.2668
-38.7756	543.2019	15.3352
-38.7695	543.922	15.4036
-38.76368	544.732	15.4719
-38.7578	540.605	15.5403
-38.7528	542.506	15.6086
-38.7465	546.797	15.677
-38.7406	547.339	15.7454
-38.73571	551.337	15.8137
-38.7296	550.485	15.88208
-38.7244	546.503	15.9504
-38.7176	543.651	16.0188
-38.7137	543.772	16.0872
-38.7074	543.789	16.1555
-38.7005	540.168	16.2239
-38.6962	542.214	16.2922
-38.6902	542.188	16.3606
-38.6849	544.637	16.429
-38.6787	547.408	16.4973
-38.6732	547.179	16.5657
-38.6673	546.458	16.634
-38.6615	543.453	16.7024
-38.6563	544.085	16.7708
-38.6495	541.6463	16.8391
-38.6447	536.147	16.9075
-38.6379	538.268	16.97583
-38.6331	539.261	17.0442
-38.6277	542.0415	17.1125
-38.6215	544.174	17.1809
-38.6156	546.956	17.2493
-38.6105	544.833	17.3176
-38.6051	542.959	17.386
-38.599	545.669	17.4543
-38.5943	539.6	17.5227
-38.5876	535.93	17.5911
-38.5818	537.626	17.6594
-38.5761	537.283	17.7278
-38.5699	538.479	17.7961
-38.565	542.3222	17.8645
-38.5584	544.045	17.9329
-38.554	541.885	18.0012
-38.5485	543.043	18.06958
-38.5417	543.889	18.1379
-38.5356	542.406	18.2063
-38.5314	538.453	18.2747
-38.5265	536.094	18.343
-38.5194	536.206	18.4114
-38.513	536.017	18.4797
-38.5077	537.9502	18.5481
-38.5022	542.357	18.6165
-38.4969	539.836	18.6848
-38.49086	540.417	18.7532
-38.4852	545.659	18.8215
-38.479	543.016	18.8899
-38.47345	537.451	18.9583
-38.46843	536.276	19.0266
-38.4617	535.323	19.095
-38.4557	536.205	19.16333
-38.4511	536.841	19.2317
-38.4463	537.238	19.3
-38.4385	537.081	19.3684
-38.4334	538.794	19.4368
-38.4281	542.048	19.5051
-38.4232	541.3847	19.5735
-38.4159	539.263	19.6418
-38.41148	535.359	19.7102
-38.4057	533.653	19.7786
-38.3997	533.886	19.8469
-38.3937	534.8	19.9153
-38.3891	534.764	19.9836
-38.3861	538.172	20.0129

Data Header:			0.254_solid_uprint_typeiv_4545_r0			Time:	39.4358	s	4/13/2019 6:48:08 PM
Data Acquisition:	Timed
Station Name:	ft40.cfg
Test File Name:	Type IV_Monotonic.tst
Displacement	Force	Running Time
mm	N	s
-38.3851	538.267	20.0227
-38.3798	531.602	20.0911
-38.3723	531.352	20.1594
-38.3673	533.335	20.2278
-38.363	534.896	20.2961
-38.3556	535.678	20.3645
-38.3501	540.31	20.4329
-38.3454	541.101	20.5012
-38.339	537.721	20.56958
-38.3342	537.84	20.6379
-38.3275	537.88	20.7063
-38.3214	533.613	20.7747
-38.3167	531.03	20.843
-38.3106	532.928	20.9114
-38.305	530.364	20.9797
-38.2996	533.293	21.0481
-38.2944	536.265	21.1165
-38.288	537.348	21.1848
-38.2821	535.563	21.2532
-38.2767	539.968	21.3215
-38.271	538.324	21.3899
-38.2636	534.71	21.4583
-38.2599	532.372	21.5266
-38.2535	529.3808	21.595
-38.2478	529.28	21.66333
-38.2431	533.697	21.7317
-38.2375	534.32	21.8
-38.2319	534.424	21.8684
-38.2249	535.935	21.9368
-38.2208	538.167	22.0051
-38.2149	538.7442	22.0735
-38.2084	535.26	22.1418
-38.2038	532.787	22.2102
-38.1965	530.537	22.2786
-38.191	528.698	22.3469
-38.1857	529.915	22.4153
-38.1802	534.082	22.4836
-38.1737	530.853	22.552
-38.1694	532.838	22.6204
-38.1633	538.445	22.6887
-38.15694	537.13	22.75708
-38.1515	534.651	22.8254
-38.1451	533.0069	22.8938
-38.1396	530.586	22.9622
-38.1343	528.604	23.0305
-38.128	529.551	23.0989
-38.1242	530.822	23.1672
-38.1174	529.796	23.2356
-38.1108	529.111	23.304
-38.1064	536.663	23.3723
-38.1008	536.5191	23.4407
-38.0944	532.655	23.509
-38.0899	533.214	23.5774
-38.0838	533.715	23.6458
-38.077	529.517	23.7141
-38.071	529.356	23.7825
-38.06538	528.73	23.85083
-38.0588	526.0979	23.9192
-38.0537	527.841	23.9875
-38.0486	532.4339	24.0559
-38.0428	534.476	24.1243
-38.0376	534.764	24.1926
-38.0316	533.758	24.261
-38.0255	532.738	24.3293
-38.0199	530.037	24.3977
-38.0137	528.932	24.4661
-38.00898	526.062	24.5344
-38.0034	525.73	24.6028
-37.9978	526.428	24.6711
-37.9924	530.319	24.7395
-37.9868	531.595	24.8079
-37.9801	532.6958	24.8762
-37.97467	534.714	24.94458
-37.9692	531.6449	25.0129
-37.9635	530.822	25.0813
-37.9579	529.302	25.1497
-37.9517	526.859	25.218
-37.9463	523.975	25.2864
-37.9411	524.323	25.3547
-37.9352	530.186	25.4231
-37.92905	530.32	25.4915
-37.9239	531.218	25.5598
-37.918	535.892	25.6282
-37.9129	530.299	25.6965
-37.9063	531.197	25.7649
-37.9004	530.829	25.8333
-37.8945	528.955	25.9016
-37.8894	522.731	25.97
-37.8842	521.513	26.03833
-37.8779	527.7785	26.1067
-37.87236	528.6474	26.175
-37.8669	528.758	26.2434
-37.8612	532.826	26.3118
-37.8552	533.569	26.3801
-37.8496	531.758	26.4485
-37.84407	531.765	26.5168
-37.8387	527.934	26.5852
-37.832	523.728	26.6536
-37.8271	522.134	26.7219
-37.8201	524.824	26.7903
-37.8158	527.244	26.8586
-37.81078	525.58	26.927
-37.8049	530.036	26.9954
-37.7984	530.496	27.0637
-37.7918	531.887	27.13208
-37.7861	532.78	27.2004
-37.7807	530.304	27.2688
-37.7755	524.689	27.3372
-37.77042	523.276	27.4055
-37.7637	524.562	27.4739
-37.7582	524.385	27.5422
-37.7516	525.487	27.6106
-37.7457	527.58	27.679
-37.7416	528.048	27.7473
-37.7358	532.46	27.8157
-37.72982	532.083	27.884
-37.7246	529.562	27.9524
-37.7189	524.649	28.0208
-37.7134	523.673	28.0891
-37.7065	524.643	28.1575
-37.701	520.971	28.22583
-37.6953	524.576	28.2942
-37.6898	525.741	28.3625
-37.6845	526.038	28.4309
-37.6788	530.342	28.4993
-37.6731	531.36	28.5676
-37.6676	530.0957	28.636
-37.6618	525.807	28.7043
-37.6549	525.076	28.7727
-37.6491	524.557	28.8411
-37.6451	521.648	28.9094
-37.639	520.389	28.9778
-37.6321	525.4303	29.0461
-37.6273	523.0141	29.1145
-37.6219	528.872	29.1829
-37.6151	529.693	29.2512
-37.6115	528.346	29.31958
-37.6052	524.634	29.3879
-37.5984	524.9115	29.4563
-37.5932	526.228	29.5247
-37.58733	520.679	29.593
-37.5812	518.5224	29.6614
-37.5771	521.268	29.7297
-37.5704	522.074	29.7981
-37.5648	524.966	29.8665
-37.5587	528.526	29.9348
-37.5534	529.831	30.0032
-37.5471	525.66	30.0715
-37.5411	526.025	30.1399
-37.5364	525.96	30.2083
-37.5303	521.506	30.2766
-37.5255	519.274	30.345
-37.5198	520.4325	30.41333
-37.5132	520.898	30.4817
-37.5076	522.024	30.55
-37.5019	526.198	30.6184
-37.4974	528.1377	30.6868
-37.492	525.182	30.7551
-37.4855	527.7157	30.8235
-37.4779	526.3103	30.8918
-37.4734	521.8	30.9602
-37.4676	520.58	31.0286
-37.4607	519.482	31.0969
-37.4569	519.399	31.1653
-37.4509	521.901	31.2336
-37.44487	522.895	31.302
-37.4392	523.344	31.3704
-37.4337	524.8197	31.4387
-37.4287	527.907	31.50708
-37.4217	525.682	31.5754
-37.416	520.5	31.6438
-37.4111	520.848	31.7122
-37.4053	518.961	31.7805
-37.40023	516.845	31.8489
-37.39436	520.031	31.9172
-37.3881	523.54	31.9856
-37.3829	520.595	32.054
-37.3786	521.508	32.1223
-37.3713	526.173	32.1907
-37.3659	525.889	32.259
-37.35915	521.762	32.3274
-37.3546	520.241	32.3958
-37.3488	519.8728	32.4641
-37.34267	517.443	32.5325
-37.3362	517.995	32.60083
-37.3324	521.126	32.6692
-37.3249	518.424	32.7375
-37.321	519.738	32.8059
-37.3142	526.5899	32.8743
-37.3084	525.394	32.9426
-37.30312	522.082	33.011
-37.2969	521.144	33.0793
-37.2902	519.3476	33.1477
-37.2858	518.49	33.2161
-37.2793	516.409	33.2844
-37.2742	516.888	33.3528
-37.2687	516.442	33.4211
-37.2624	518.944	33.4895
-37.2573	523.075	33.5579
-37.2516	523.069	33.6262
-37.2461	521.298	33.69458
-37.2398	520.814	33.7629
-37.2337	519.27	33.8313
-37.2287	517.3421	33.8997
-37.223	515.862	33.968
-37.2171	514.074	34.0364
-37.2116	514.172	34.1047
-37.2062	514.788	34.1731
-37.2009	519.166	34.2415
-37.1944	519.949	34.3098
-37.1875	521.233	34.3782
-37.1832	519.209	34.4465
-37.1776	520.86	34.5149
-37.172	516.435	34.5833
-37.16544	516.02	34.6516
-37.1599	515.26	34.72
-37.1548	510.815	34.78833
-37.149	511.946	34.8567
-37.1425	517.978	34.925
-37.1368	517.018	34.9934
-37.1319	518.6532	35.0618
-37.1263	519.677	35.1301
-37.1191	517.3551	35.1985
-37.115	516.291	35.2668
-37.1097	516.687	35.3352
-37.1031	512.6	35.4036
-37.0962	506.661	35.4719
-37.0926	508.364	35.5403
-37.0858	512.624	35.6086
-37.08004	512.509	35.677
-37.075	513.401	35.7454
-37.06839	517.652	35.8137
-37.0626	515.662	35.88208
-37.0576	513.274	35.9504
-37.0523	513.711	36.0188
-37.046	509.56	36.0872
-37.0401	503.3905	36.1555
-37.0342	502.5596	36.2239
-37.0283	506.653	36.2922
-37.0233	505.272	36.3606
-37.0174	505.745	36.429
-37.0132	507.7229	36.4973
-37.0059	506.757	36.5657
-37.0004	505.505	36.634
-36.9958	500.9296	36.7024
-36.9859	-39.9266	36.7708
-36.98122	-43.8699	36.8391
-36.9775	-45.2786	36.9075
-36.9715	-41.6194	36.97583
-36.9657	-43.957	37.0442
-36.9613	-42.395	37.1125
-36.95472	-40.0455	37.1809
-36.9489	-37.4923	37.2493
-36.9429	-35.0348	37.3176
-36.9378	-37.2412	37.386
-36.9324	-39.1144	37.4543
-36.9257	-43.308	37.5227
-36.9215	-45.5605	37.5911
-36.9153	-43.1348	37.6594
-36.9098	-46.541	37.7278
-36.9029	-43.6244	37.7961
-36.8988	-40.3354	37.8645
-36.8915	-39.9888	37.9329
-36.8878	-36.7792	38.0012
-36.8807	-36.1119	38.06958
-36.8762	-38.6176	38.1379
-36.8703	-44.2496	38.2063
-36.8637	-42.3814	38.2747
-36.8585	-41.4513	38.343
-36.8524	-45.5744	38.4114
-36.8465	-44.68174	38.4797
-36.8403	-41.7808	38.5481
-36.8352	-42.0467	38.6165
-36.8294	-38.4452	38.6848
-36.8241	-35.338	38.7532
-36.81863	-38.7161	38.8215
-36.8141	-42.0813	38.8899
-36.8072	-41.1672	38.9583
-36.8009	-40.7278	39.0266
-36.7953	-45.0187	39.095
-36.7892	-45.1857	39.16333
-36.7847	-43.3834	39.2317
-36.77869	-43.1129	39.3
-36.7748	-40.1645	39.3684
-36.7681	-38.8777	39.427