File: data/processed_data_files/tensile/0.254_hd_dimension_typeiv_090_r(5).dat
MTS793|BTW|ENU|1|2|.|/|:|1|0|0|A

Data Header:			0.254_hd_dimension_typeiv_090_r0			Time:	20.01709	s	4/14/2019 12:33:00 AM
Data Acquisition:	Timed
Station Name:	ft40.cfg
Test File Name:	monotonic_0.2540_typeiv_hd_090_dimension.tst
Displacement	Force	Running Time
mm	N	s
-40.04084	-33.1432	0.0224609
-40.0405	-33.4385	0.0908203
-40.0351	-28.1994	0.15918
-40.0295	-24.62396	0.227539
-40.0234	-19.0823	0.295898
-40.01749	-14.3347	0.364258
-40.0116	-9.47258	0.432617
-40.0066	-5.85954	0.500977
-40.0004	-4.90002	0.569336
-39.99514	-7.20631	0.637695
-39.9889	-5.03125	0.706055
-39.9845	1.14005	0.774414
-39.9786	4.3908	0.842773
-39.97205	8.32524	0.911133
-39.9672	14.6353	0.979492
-39.9609	18.6981	1.04785
-39.9539	23.8544	1.11621
-39.949	29.0379	1.18457
-39.9435	29.2913	1.25293
-39.9387	28.6206	1.32129
-39.9322	30.8831	1.38965
-39.9259	37.0932	1.45801
-39.9206	37.1179	1.52637
-39.9154	40.986	1.59473
-39.9094	48.9961	1.66309
-39.90387	50.5312	1.73145
-39.8986	57.43	1.7998
-39.8924	63.4714	1.86816
-39.88728	63.3148	1.93652
-39.88192	63.5044	2.00488
-39.875	66.7413	2.07324
-39.8696	71.0593	2.1416
-39.8642	69.9889	2.20996
-39.8575	74.6997	2.27832
-39.85326	80.74279	2.34668
-39.8469	84.4124	2.41504
-39.8413	89.49353	2.4834
-39.8354	97.128	2.55176
-39.8301	95.5477	2.62012
-39.8239	95.8774	2.68848
-39.8198	101.05	2.75684
-39.8134	104.655	2.8252
-39.80801	104.929	2.89355
-39.8013	108.733	2.96191
-39.7954	112.834	3.03027
-39.7901	117.541	3.09863
-39.7844	120.97	3.16699
-39.7786	128.189	3.23535
-39.773	129.635	3.30371
-39.769	129.416	3.37207
-39.76107	137.26	3.44043
-39.7556	138.547	3.50879
-39.74942	137.6	3.57715
-39.7442	141.255	3.64551
-39.7391	143.314	3.71387
-39.7344	146.2157	3.78223
-39.728	153.238	3.85059
-39.7228	158.097	3.91895
-39.7154	159.478	3.9873
-39.7112	160.926	4.05566
-39.7045	169.641	4.12402
-39.6995	171.701	4.19238
-39.6935	171.016	4.26074
-39.6878	173.722	4.3291
-39.683	176.011	4.39746
-39.677	178.828	4.46582
-39.6702	181.659	4.53418
-39.6649	188.484	4.60254
-39.6596	190.467	4.6709
-39.6526	194.532	4.73926
-39.6484	201.155	4.80762
-39.6426	203.4026	4.87598
-39.63755	204.607	4.94434
-39.6303	207.346	5.0127
-39.6251	206.6	5.08105
-39.6189	210.8183	5.14941
-39.6144	213.091	5.21777
-39.6089	217.265	5.28613
-39.6022	221.362	5.35449
-39.5964	227.1143	5.42285
-39.5903	233.445	5.49121
-39.5851	236.086	5.55957
-39.5791	238.918	5.62793
-39.5742	240.095	5.69629
-39.5677	240.641	5.76465
-39.5628	244.091	5.83301
-39.5567	245.2442	5.90137
-39.5513	245.59	5.96973
-39.5455	248.299	6.03809
-39.5397	256.6366	6.10645
-39.5338	262.36	6.1748
-39.5281	267.468	6.24316
-39.5221	270.487	6.31152
-39.5168	271.341	6.37988
-39.5113	271.571	6.44824
-39.5056	274.587	6.5166
-39.4994	276.872	6.58496
-39.4937	274.437	6.65332
-39.4882	278.527	6.72168
-39.4825	287.729	6.79004
-39.4772	291.474	6.8584
-39.4716	294.574	6.92676
-39.4668	300.597	6.99512
-39.4593	300.979	7.06348
-39.45414	301.1156	7.13184
-39.4495	304.546	7.2002
-39.44249	306.53	7.26855
-39.4383	302.601	7.33691
-39.4322	307.523	7.40527
-39.4259	315.63	7.47363
-39.4193	318.141	7.54199
-39.4136	321.944	7.61035
-39.4086	328.276	7.67871
-39.4029	328.884	7.74707
-39.3982	331.2728	7.81543
-39.3915	332.79	7.88379
-39.3862	332.3988	7.95215
-39.3806	329.2438	8.02051
-39.3746	334.255	8.08887
-39.3694	341.252	8.15723
-39.3633	342.973	8.22559
-39.3578	347.512	8.29395
-39.3506	356.009	8.3623
-39.3468	356.086	8.43066
-39.34182	357.172	8.49902
-39.3346	361.888	8.56738
-39.3295	361.103	8.63574
-39.3229	358.47	8.7041
-39.3183	361.019	8.77246
-39.3119	367.455	8.84082
-39.3056	367.648	8.90918
-39.3001	372.552	8.97754
-39.2948	379.302	9.0459
-39.2885	381.455	9.11426
-39.283	385.674	9.18262
-39.2782	389.351	9.25098
-39.2717	388.486	9.31934
-39.2668	383.607	9.3877
-39.2614	385.664	9.45605
-39.2548	390.114	9.52441
-39.2491	389.7601	9.59277
-39.24305	394.345	9.66113
-39.2372	400.4884	9.72949
-39.2316	403.609	9.79785
-39.2269	407.405	9.86621
-39.222	409.926	9.93457
-39.2145	409.415	10.00293
-39.2098	406.419	10.0713
-39.2036	410.217	10.1396
-39.1974	411.819	10.208
-39.1921	411.854	10.2764
-39.1871	414.107	10.3447
-39.1806	418.82	10.4131
-39.1755	422.8175	10.4814
-39.1698	426.9743	10.5498
-39.1639	426.936	10.6182
-39.1589	428.597	10.6865
-39.1533	427.016	10.7549
-39.146	429.164	10.8232
-39.1412	428.689	10.8916
-39.1342	428.246	10.96
-39.1294	430.548	11.02832
-39.1236	433.452	11.09668
-39.1179	435.817	11.165
-39.1125	438.968	11.2334
-39.1077	441.585	11.3018
-39.1003	440.696	11.3701
-39.0952	441.186	11.4385
-39.0898	442.359	11.5068
-39.0838	438.611	11.5752
-39.0775	439.67	11.6436
-39.0741	439.928	11.7119
-39.0661	439.621	11.7803
-39.061	443.7644	11.8486
-39.05616	446.757	11.917
-39.0493	446.3613	11.9854
-39.0447	446.013	12.0537
-39.0379	447.2478	12.12207
-39.03299	449.938	12.19043
-39.0274	448.619	12.2588
-39.0209	446.0849	12.3271
-39.016	445.043	12.3955
-39.0099	442.8154	12.4639
-39.0048	445.997	12.5322
-38.99828	449.41	12.6006
-38.9936	447.165	12.6689
-38.9869	447.111	12.7373
-38.9814	451.039	12.8057
-38.9764	452.344	12.874
-38.9699	447.565	12.9424
-38.9641	445.932	13.0107
-38.9572	444.107	13.0791
-38.9527	443.5751	13.1475
-38.9474	441.305	13.21582
-38.9413	442.632	13.28418
-38.9349	443.745	13.3525
-38.9314	442.3439	13.4209
-38.9251	446.1369	13.4893
-38.9199	448.116	13.5576
-38.9122	444.034	13.626
-38.9056	442.628	13.6943
-38.9009	440.382	13.7627
-38.8962	436.603	13.8311
-38.8897	435.485	13.8994
-38.8839	438.026	13.9678
-38.8789	435.052	14.0361
-38.8719	433.3364	14.1045
-38.86718	438.929	14.1729
-38.86269	439.928	14.2412
-38.8562	438.882	14.30957
-38.8504	437.411	14.37793
-38.8442	436.833	14.4463
-38.8382	434.175	14.5146
-38.833	430.942	14.583
-38.8272	431.838	14.6514
-38.8218	427.215	14.7197
-38.8158	428.23	14.7881
-38.8115	432.515	14.8564
-38.80505	436.866	14.9248
-38.8	434.634	14.9932
-38.7944	434.119	15.0615
-38.7886	434.156	15.1299
-38.7823	431.46	15.1982
-38.7758	429.617	15.2666
-38.7707	428.794	15.335
-38.7648	423.775	15.40332
-38.7594	424.788	15.47168
-38.7533	428.085	15.54
-38.7471	432.782	15.6084
-38.7413	432.277	15.6768
-38.7369	431.508	15.7451
-38.7313	431.4397	15.8135
-38.7245	430.483	15.8818
-38.7196	428.8154	15.9502
-38.7139	424.33	16.0186
-38.7085	422.417	16.0869
-38.7031	421.346	16.1553
-38.697	425.623	16.2236
-38.6916	427.394	16.292
-38.6858	429.268	16.3604
-38.6786	430.761	16.4287
-38.6745	430.42	16.49707
-38.6681	429.77	16.56543
-38.6633	427.689	16.6338
-38.6573	423.946	16.7021
-38.6516	420.738	16.7705
-38.6462	419.852	16.8389
-38.6398	423.838	16.9072
-38.6342	424.953	16.9756
-38.6293	428.248	17.0439
-38.6227	428.181	17.1123
-38.6174	426.462	17.1807
-38.6113	428.889	17.249
-38.60516	428.158	17.3174
-38.5995	423.7601	17.3857
-38.595	419.206	17.4541
-38.5887	419.091	17.5225
-38.5827	421.518	17.59082
-38.5776	420.632	17.65918
-38.5718	423.671	17.7275
-38.5658	426.865	17.7959
-38.5602	424.482	17.8643
-38.5547	427.571	17.9326
-38.5482	428.291	18.001
-38.5435	423.28	18.0693
-38.5365	417.672	18.1377
-38.5307	419.288	18.2061
-38.52354	421.2966	18.2744
-38.5193	418.995	18.3428
-38.5137	420.7337	18.4111
-38.50956	425.914	18.4795
-38.5029	423.28	18.5479
-38.4971	427.9321	18.6162
-38.4918	427.121	18.68457
-38.486	424.934	18.75293
-38.4798	418.45	18.8213
-38.4746	420.601	18.8896
-38.4693	420.829	18.958
-38.46312	419.287	19.0264
-38.4568	419.308	19.0947
-38.4519	422.588	19.1631
-38.4456	422.687	19.2314
-38.4409	424.17	19.2998
-38.434	428.455	19.3682
-38.4298	424.432	19.4365
-38.4234	421.2	19.5049
-38.4175	420.694	19.5732
-38.4114	421.393	19.6416
-38.40604	417.088	19.71
-38.401	416.414	19.77832
-38.3952	420.111	19.84668
-38.3888	422.016	19.915
-38.3847	422.389	19.9834
-38.379	422.365	20.0127

Data Header:			0.254_hd_dimension_typeiv_090_r0			Time:	26.2332	s	4/14/2019 12:33:06 AM
Data Acquisition:	Timed
Station Name:	ft40.cfg
Test File Name:	monotonic_0.2540_typeiv_hd_090_dimension.tst
Displacement	Force	Running Time
mm	N	s
-38.3801	415.632	20.0225
-38.3791	426.509	20.0518
-38.3746	416.663	20.0811
-38.3738	422.567	20.1104
-38.3707	416.984	20.1396
-38.3677	423.6272	20.1689
-38.3654	422.03	20.1982
-38.3632	419.192	20.2275
-38.361	421.0993	20.2568
-38.3578	418.061	20.2861
-38.3562	423.646	20.31543
-38.3528	419.158	20.3447
-38.3507	426.7457	20.374
-38.348	416.976	20.40332
-38.3458	424.078	20.4326
-38.3429	416.811	20.4619
-38.3405	425.237	20.4912
-38.3386	416.452	20.5205
-38.3358	423.362	20.5498
-38.33371	419.393	20.5791
-38.3301	422.72	20.6084
-38.3283	415.401	20.6377
-38.3263	420.873	20.667
-38.3242	422.262	20.6963
-38.3217	420.405	20.7256
-38.3182	420.204	20.7549
-38.3165	418.63	20.78418
-38.3142	424.298	20.8135
-38.3121	417.049	20.8428
-38.3094	420.173	20.87207
-38.307	417.933	20.9014
-38.3044	424.817	20.9307
-38.302	416.929	20.96
-38.3001	418.9476	20.9893
-38.297	417.076	21.0186
-38.2951	422.891	21.0479
-38.2922	419.593	21.0771
-38.2895	419.198	21.1064
-38.2875	421.824	21.1357
-38.2851	418.054	21.165
-38.2828	420.988	21.1943
-38.27943	418.153	21.2236
-38.2772	422.436	21.25293
-38.2749	416.764	21.2822
-38.2724	423.159	21.3115
-38.2714	415.977	21.34082
-38.2675	421.13	21.3701
-38.2647	415.588	21.3994
-38.2625	423.96	21.4287
-38.26	417.935	21.458
-38.2578	419.486	21.4873
-38.2555	417.464	21.5166
-38.2536	421.658	21.5459
-38.25095	419.231	21.5752
-38.2473	416.57	21.6045
-38.2453	420.498	21.6338
-38.2433	418.0965	21.6631
-38.2407	421.612	21.6924
-38.2384	412.73	21.72168
-38.2369	422.673	21.751
-38.23394	416.796	21.7803
-38.2313	422.8555	21.80957
-38.22781	412.906	21.8389
-38.2266	423.755	21.8682
-38.2238	415.9921	21.8975
-38.2211	420.27	21.9268
-38.2195	412.901	21.9561
-38.2162	423.378	21.9854
-38.2138	416.227	22.0146
-38.2117	418.381	22.0439
-38.2092	415.797	22.0732
-38.2071	417.062	22.1025
-38.2029	418.604	22.1318
-38.2023	416.83	22.1611
-38.198	420.99	22.19043
-38.19664	415.363	22.2197
-38.1942	422.077	22.249
-38.1921	413.196	22.27832
-38.1898	423.257	22.3076
-38.1869	413.937	22.3369
-38.18512	422.443	22.3662
-38.1819	415.31	22.3955
-38.1794	422.844	22.4248
-38.1778	413.57	22.4541
-38.17458	420.023	22.4834
-38.17289	418.997	22.5127
-38.1698	421.388	22.542
-38.1672	416.8826	22.5713
-38.1651	418.583	22.6006
-38.1632	420.044	22.6299
-38.16	416.6994	22.65918
-38.1571	417.784	22.6885
-38.15575	415.45	22.7178
-38.1545	423.452	22.74707
-38.1506	412.537	22.7764
-38.1478	417.736	22.8057
-38.1457	414.843	22.835
-38.142	422.698	22.8643
-38.1409	414.181	22.8936
-38.1385	416.918	22.9229
-38.1358	416.323	22.9521
-38.1339	416.984	22.9814
-38.1304	416.032	23.0107
-38.1286	413.208	23.04
-38.1256	421.219	23.0693
-38.1228	415.404	23.0986
-38.1211	418.181	23.12793
-38.1203	414.469	23.1572
-38.1167	419.335	23.1865
-38.1133	414.891	23.21582
-38.1125	421.089	23.2451
-38.1086	415.287	23.2744
-38.10648	418.894	23.3037
-38.1036	412.57	23.333
-38.1019	417.765	23.3623
-38.0995	417.744	23.3916
-38.097	417.683	23.4209
-38.0937	418.187	23.4502
-38.0919	420.091	23.4795
-38.0895	417.696	23.5088
-38.0872	411.485	23.5381
-38.0852	420.196	23.5674
-38.0821	415.534	23.59668
-38.0792	421.629	23.626
-38.0759	408.358	23.6553
-38.0746	419.634	23.68457
-38.072	413.011	23.7139
-38.0704	419.652	23.7432
-38.0668	410.199	23.7725
-38.0651	422.153	23.8018
-38.062	414.468	23.8311
-38.0608	416.431	23.8604
-38.057	410.486	23.8896
-38.0559	418.462	23.9189
-38.0528	415.759	23.9482
-38.0515	414.275	23.9775
-38.0473	414.484	24.0068
-38.045	412.571	24.0361
-38.0438	416.741	24.06543
-38.0399	410.982	24.0947
-38.0388	418.223	24.124
-38.0359	412.559	24.15332
-38.0341	417.56	24.1826
-38.0314	411.13	24.2119
-38.0288	418.772	24.2412
-38.0267	410.04	24.2705
-38.024	417.23	24.2998
-38.0206	413.44	24.3291
-38.0188	416.081	24.3584
-38.0159	410.429	24.3877
-38.0131	414.095	24.417
-38.01178	414.413	24.4463
-38.0095	413.598	24.4756
-38.0061	414.396	24.5049
-38.0047	411.568	24.53418
-38.0011	417.189	24.5635
-38	409.973	24.5928
-37.99646	412.228	24.62207
-37.99435	409.944	24.6514
-37.9921	418.312	24.6807
-37.9882	408.875	24.71
-37.98764	411.895	24.7393
-37.985	409.707	24.7686
-37.98267	413.663	24.7979
-37.9797	410.388	24.8271
-37.9771	409.6478	24.8564
-37.9755	413.152	24.8857
-37.9726	411.687	24.915
-37.9698	410.4053	24.9443
-37.9677	404.571	24.9736
-37.9651	412.535	25.00293
-37.9623	406.263	25.0322
-37.959	411.9382	25.0615
-37.9574	402.326	25.09082
-37.9555	411.433	25.1201
-37.9539	402.492	25.1494
-37.9489	408.511	25.1787
-37.9477	400.662	25.208
-37.9459	404.762	25.2373
-37.94297	389.557	25.2666
-37.9383	-51.7909	25.2959
-37.9363	-39.8285	25.3252
-37.9354	-43.5984	25.3545
-37.9324	-38.3698	25.3838
-37.9302	-40.2593	25.4131
-37.9277	-36.1645	25.4424
-37.9258	-45.8577	25.47168
-37.9237	-39.0411	25.501
-37.9203	-44.4421	25.5303
-37.9182	-35.4632	25.55957
-37.9148	-45.9064	25.5889
-37.914	-34.7604	25.6182
-37.9109	-44.1969	25.6475
-37.9092	-38.7772	25.6768
-37.9072	-47.5749	25.7061
-37.9025	-38.6011	25.7354
-37.8999	-40.6265	25.7646
-37.8992	-40.0545	25.7939
-37.8961	-44.287	25.8232
-37.8943	-39.5005	25.8525
-37.891	-39.2188	25.8818
-37.8888	-44.2335	25.9111
-37.8865	-40.7545	25.94043
-37.8838	-41.247	25.9697
-37.8822	-37.4648	25.999
-37.8795	-46.5978	26.02832
-37.8758	-40.3208	26.0576
-37.87402	-43.2414	26.0869
-37.872	-38.421	26.1162
-37.8704	-44.3631	26.1455
-37.8663	-38.9644	26.1748
-37.864	-42.9483	26.2041
-37.8625	-45.8475	26.2236