File: data/processed_data_files/tensile/0.254_hd_uprint_typeiv_090_r(6).dat
MTS793|BTW|ENU|1|2|.|/|:|1|0|0|A

Data Header:			0.254_hd_uprint_typeiv_090_r0			Time:	20.0181	s	4/13/2019 11:09:34 PM
Data Acquisition:	Timed
Station Name:	ft40.cfg
Test File Name:	monotonic_0.2540_typeiv_solid_4545_uprint.tst
Displacement	Force	Running Time
mm	N	s
-40.0436	-187.638	0.0229492
-40.0426	-182.191	0.0913086
-40.0351	-180.428	0.159668
-40.0302	-179.079	0.228027
-40.0249	-174.1555	0.296387
-40.0192	-173.367	0.364746
-40.0142	-171.955	0.433105
-40.0074	-168.463	0.501465
-40.0016	-164.458	0.569824
-39.997	-163.662	0.638184
-39.9914	-158.621	0.706543
-39.9849	-151.315	0.774902
-39.9795	-148.229	0.843262
-39.9735	-144.859	0.911621
-39.968	-141.4987	0.97998
-39.9626	-140.056	1.04834
-39.9564	-137.433	1.1167
-39.9504	-133.325	1.18506
-39.9457	-133.509	1.253418
-39.939	-133.317	1.32178
-39.933	-127.279	1.39014
-39.9287	-119.879	1.4585
-39.92234	-117.099	1.52686
-39.9166	-113.915	1.59521
-39.9116	-107.533	1.66357
-39.9054	-106.256	1.73193
-39.8992	-104.884	1.800293
-39.8939	-100.317	1.86865
-39.8876	-100.7964	1.93701
-39.8829	-101.024	2.00537
-39.877	-94.3504	2.07373
-39.8714	-86.8245	2.14209
-39.8648	-86.9764	2.21045
-39.86	-80.4173	2.27881
-39.854	-74.5344	2.347168
-39.8486	-76.0925	2.41553
-39.843	-71.1241	2.48389
-39.83646	-67.3634	2.55225
-39.832	-67.2742	2.62061
-39.826	-69.29158	2.68896
-39.8201	-62.9169	2.75732
-39.8144	-57.4846	2.82568
-39.8084	-53.49234	2.894043
-39.8019	-48.8705	2.9624
-39.7971	-44.0238	3.03076
-39.7913	-40.6395	3.09912
-39.7863	-37.1753	3.16748
-39.7804	-35.2495	3.23584
-39.77433	-36.6505	3.3042
-39.7693	-36.0112	3.37256
-39.7634	-28.6728	3.440918
-39.7573	-26.63567	3.50928
-39.753	-24.568	3.57764
-39.7461	-18.2216	3.646
-39.7406	-13.8158	3.71436
-39.7349	-8.923068	3.78271
-39.7282	-4.25468	3.85107
-39.7233	-2.779846	3.91943
-39.7172	-3.36256	3.987793
-39.7122	-2.19091	4.05615
-39.7062	2.61911	4.12451
-39.6997	4.85359	4.19287
-39.6941	7.557755	4.26123
-39.6886	13.1068	4.32959
-39.6832	17.5605	4.39795
-39.6779	24.95788	4.46631
-39.6715	28.7014	4.534668
-39.6665	30.3426	4.60303
-39.6604	30.512	4.67139
-39.6534	31.9457	4.73975
-39.6491	34.8377	4.80811
-39.644	35.91209	4.87646
-39.6383	40.9692	4.94482
-39.6316	43.4554	5.01318
-39.6265	47.9966	5.081543
-39.6202	56.1941	5.1499
-39.6143	60.7725	5.21826
-39.6078	61.0146	5.28662
-39.6023	62.3615	5.35498
-39.5978	67.2385	5.42334
-39.592	67.9091	5.4917
-39.5871	67.9535	5.56006
-39.5792	71.64653	5.628418
-39.5754	75.7899	5.69678
-39.5698	80.4711	5.76514
-39.565	85.4657	5.8335
-39.5575	91.8635	5.90186
-39.5516	91.6796	5.97021
-39.5467	95.5014	6.03857
-39.5407	99.86	6.10693
-39.53495	100.293	6.175293
-39.5288	100.969	6.24365
-39.5223	103.836	6.31201
-39.5177	106.051	6.38037
-39.5121	110.022	6.44873
-39.507	116.4631	6.51709
-39.5005	121.074	6.58545
-39.4957	122.594	6.65381
-39.4895	126.92	6.722168
-39.4834	132.617	6.79053
-39.4782	132.754	6.85889
-39.4723	132.792	6.92725
-39.4655	136.982	6.99561
-39.4616	136.955	7.06396
-39.456	141.887	7.13232
-39.4498	147.981	7.20068
-39.4437	150.779	7.269043
-39.4381	151.65	7.3374
-39.4328	158.063	7.40576
-39.4267	164.716	7.47412
-39.4209	163.582	7.54248
-39.41539	165.528	7.61084
-39.4112	167.762	7.6792
-39.4035	167.551	7.74756
-39.3979	172.171	7.815918
-39.3929	177.343	7.88428
-39.3875	179.761	7.95264
-39.38084	180.1469	8.021
-39.3764	189.678	8.08936
-39.3698	192.812	8.15771
-39.3644	194.763	8.22607
-39.3583	194.908	8.29443
-39.3528	199.81	8.362793
-39.3471	199.23	8.43115
-39.3413	202.745	8.49951
-39.3365	207.023	8.56787
-39.3297	208.019	8.63623
-39.3252	208.321	8.70459
-39.3182	217.526	8.77295
-39.3129	223.214	8.84131
-39.3071	223.71	8.909668
-39.3012	227.448	8.97803
-39.2963	228.711	9.04639
-39.2894	229.763	9.11475
-39.2853	231.6955	9.18311
-39.2793	234.001	9.25146
-39.2738	235.311	9.31982
-39.2661	237.731	9.38818
-39.2622	245.725	9.456543
-39.256	249.365	9.5249
-39.2501	252.855	9.59326
-39.2432	256.6752	9.66162
-39.2393	259.487	9.72998
-39.2337	260.436	9.79834
-39.2276	262.09	9.8667
-39.2212	264.058	9.93506
-39.21566	262.092	10.0034
-39.2106	265.45	10.0718
-39.2049	274.2356	10.1401
-39.1995	277.508	10.2085
-39.1934	281.782	10.2769
-39.1882	284.09	10.3452
-39.1824	288.833	10.4136
-39.1769	291.507	10.4819
-39.17128	291.486	10.5503
-39.16433	291.95	10.6187
-39.15958	291.5769	10.687
-39.1534	294.847	10.7554
-39.149	298.212	10.82373
-39.1423	301.461	10.89209
-39.1363	307.917	10.9604
-39.1315	311.69	11.0288
-39.1244	315.195	11.0972
-39.12	318.787	11.1655
-39.1142	320.453	11.2339
-39.1073	318.423	11.3022
-39.1026	318.792	11.3706
-39.09795	321.977	11.439
-39.091	324.697	11.5073
-39.0857	327.223	11.5757
-39.0796	331.734	11.644
-39.0741	336.313	11.7124
-39.0677	340.2883	11.7808
-39.0627	346.564	11.8491
-39.0566	347.278	11.91748
-39.0514	343.988	11.98584
-39.0449	346.451	12.0542
-39.0412	348.904	12.1226
-39.0341	349.105	12.1909
-39.029	351.9339	12.2593
-39.0223	357.034	12.3276
-39.0169	359.131	12.396
-39.0116	365.465	12.4644
-39.0061	370.236	12.5327
-39	371.24	12.6011
-38.99387	367.905	12.6694
-38.9883	370.606	12.7378
-38.9849	373.5394	12.8062
-38.9779	373.214	12.8745
-38.9722	372.962	12.9429
-38.9653	378.692	13.01123
-38.9596	381.374	13.07959
-38.9533	385.662	13.1479
-38.9495	391.28	13.2163
-38.9424	393.462	13.2847
-38.9361	390.142	13.353
-38.9316	393.195	13.4214
-38.9262	396.255	13.4897
-38.92099	393.982	13.5581
-38.9144	393.746	13.6265
-38.9106	397.988	13.6948
-38.9039	398.866	13.7632
-38.8967	404.168	13.8315
-38.8922	409.341	13.8999
-38.8867	410.368	13.9683
-38.88031	408.459	14.0366
-38.87384	412.623	14.10498
-38.8693	415.703	14.17334
-38.8625	411.253	14.2417
-38.8578	411.871	14.3101
-38.8521	413.9902	14.3784
-38.8465	412.948	14.4468
-38.8406	417.308	14.5151
-38.83506	422.643	14.5835
-38.82909	421.292	14.6519
-38.8221	422.123	14.7202
-38.8179	427.496	14.7886
-38.812	427.396	14.8569
-38.807	423.589	14.9253
-38.8003	424.661	14.9937
-38.7933	424.087	15.062
-38.7897	424.909	15.1304
-38.7841	426.189	15.19873
-38.7771	431.139	15.26709
-38.7725	430.764	15.3354
-38.7656	431.833	15.4038
-38.7611	433.732	15.4722
-38.7547	434.4368	15.5405
-38.7502	431.836	15.6089
-38.7448	431.357	15.6772
-38.73719	429.904	15.7456
-38.7324	431.124	15.814
-38.7271	432.721	15.8823
-38.7208	433.629	15.9507
-38.7155	432.635	16.019
-38.70911	434.814	16.0874
-38.7049	438.554	16.1558
-38.69754	437.705	16.2241
-38.6922	436.926	16.29248
-38.6872	434.84	16.36084
-38.6808	431.337	16.4292
-38.67416	433.197	16.4976
-38.6692	432.8147	16.5659
-38.6638	432.3139	16.6343
-38.6587	430.886	16.7026
-38.652	434.548	16.771
-38.648	436.965	16.8394
-38.6412	436.9541	16.9077
-38.6352	437.812	16.9761
-38.63065	436.099	17.0444
-38.624	433.736	17.1128
-38.619	435.04	17.1812
-38.6128	430.983	17.2495
-38.6078	428.71	17.3179
-38.6013	428.559	17.38623
-38.5963	433.777	17.45459
-38.5903	432.827	17.5229
-38.5844	433.293	17.5913
-38.5788	434.528	17.6597
-38.5734	432.6203	17.728
-38.5676	430.655	17.7964
-38.5616	430.916	17.8647
-38.55555	428.827	17.9331
-38.54982	423.256	18.0015
-38.5438	422.779	18.0698
-38.5388	427.21	18.1382
-38.5322	425.925	18.2065
-38.5275	428.44	18.2749
-38.521	431.087	18.3433
-38.5158	429.727	18.4116
-38.5097	428.481	18.47998
-38.5052	426.972	18.54834
-38.4986	425.764	18.6167
-38.4932	419.782	18.6851
-38.4874	418.233	18.7534
-38.4818	423.062	18.8218
-38.4761	423.637	18.8901
-38.4703	422.649	18.9585
-38.4648	426.647	19.0269
-38.459	425.165	19.0952
-38.4542	425.473	19.1636
-38.4469	425.737	19.2319
-38.4419	424.561	19.3003
-38.4367	417.622	19.3687
-38.4301	414.6	19.437
-38.4244	421.012	19.5054
-38.419	418.021	19.57373
-38.4135	418.105	19.64209
-38.4082	421.713	19.7104
-38.4021	423.524	19.7788
-38.397	424.172	19.8472
-38.3901	424.967	19.9155
-38.3854	422.725	19.9839
-38.3832	418.672	20.0132

Data Header:			0.254_hd_uprint_typeiv_090_r0			Time:	37.9561	s	4/13/2019 11:09:52 PM
Data Acquisition:	Timed
Station Name:	ft40.cfg
Test File Name:	monotonic_0.2540_typeiv_solid_4545_uprint.tst
Displacement	Force	Running Time
mm	N	s
-38.3814	421.4726	20.0229
-38.376	421.015	20.0913
-38.3703	421.962	20.1597
-38.3651	421.84	20.228
-38.3581	419.966	20.2964
-38.3531	419.794	20.3647
-38.3466	418.042	20.4331
-38.3414	412.672	20.5015
-38.3356	411.825	20.5698
-38.3302	418.337	20.6382
-38.3254	417.416	20.7065
-38.3192	417.89	20.7749
-38.3123	420.94	20.8433
-38.3069	421.795	20.9116
-38.3017	419.058	20.97998
-38.2948	419.451	21.04834
-38.2903	416.779	21.1167
-38.2848	411.407	21.1851
-38.2789	411.922	21.2534
-38.2734	415.41	21.3218
-38.2676	414.858	21.3901
-38.2618	415.479	21.4585
-38.2566	420.042	21.5269
-38.2509	418.459	21.5952
-38.2458	420.187	21.6636
-38.2386	419.848	21.7319
-38.23362	416.279	21.8003
-38.2277	409.008	21.8687
-38.2218	409.693	21.937
-38.2169	413.431	22.0054
-38.2113	411.129	22.07373
-38.204	411.926	22.14209
-38.1993	417.039	22.2104
-38.1941	417.889	22.2788
-38.1889	419.615	22.3472
-38.1824	420.215	22.4155
-38.176	416.4809	22.4839
-38.1714	411.698	22.5522
-38.1653	412.063	22.6206
-38.16	411.7233	22.689
-38.1539	410.93	22.7573
-38.1479	411.576	22.8257
-38.1414	413.317	22.894
-38.13493	417.688	22.9624
-38.1308	418.704	23.0308
-38.1251	419.599	23.0991
-38.119	416.165	23.16748
-38.1138	412.274	23.23584
-38.10743	413.7692	23.3042
-38.1016	411.309	23.3726
-38.09676	409.218	23.4409
-38.0914	410.25	23.5093
-38.08519	411.829	23.5776
-38.0793	415.297	23.646
-38.0735	417.761	23.7144
-38.0682	417.024	23.7827
-38.0625	415.484	23.8511
-38.057	414.9567	23.9194
-38.0513	414.428	23.9878
-38.0449	411.104	24.0562
-38.039	410.324	24.1245
-38.0349	410.006	24.1929
-38.0282	408.9978	24.26123
-38.0223	413.3735	24.32959
-38.0173	415.844	24.3979
-38.0112	415.2319	24.4663
-38.005	414.621	24.5347
-38.0002	414.908	24.603
-37.9945	415.5423	24.6714
-37.9884	412.145	24.7397
-37.98299	411.693	24.8081
-37.977	410.425	24.8765
-37.97221	408.08	24.9448
-37.9659	411.346	25.0132
-37.9596	414.27	25.0815
-37.954	413.544	25.1499
-37.9492	413.086	25.2183
-37.9429	416.3696	25.2866
-37.9376	416.006	25.35498
-37.9314	412.463	25.42334
-37.9252	412.719	25.4917
-37.9205	410.873	25.5601
-37.9157	405.878	25.6284
-37.9084	409.325	25.6968
-37.903	412.177	25.7651
-37.8978	410.747	25.8335
-37.891	411.148	25.9019
-37.8862	415.96	25.9702
-37.8805	414.851	26.0386
-37.8755	413.289	26.1069
-37.8702	413.711	26.1753
-37.8635	410.436	26.2437
-37.8577	405.521	26.312
-37.8521	409.336	26.3804
-37.8459	411.207	26.44873
-37.8401	409.276	26.51709
-37.8364	409.4866	26.5854
-37.8285	416.634	26.6538
-37.8235	416.46	26.7222
-37.8187	411.972	26.7905
-37.8113	412.915	26.8589
-37.8056	408.94	26.9272
-37.8009	407.894	26.9956
-37.7948	408.025	27.064
-37.7894	408.424	27.1323
-37.783	406.153	27.2007
-37.7778	408.311	27.269
-37.7721	413.787	27.3374
-37.7664	413.84	27.4058
-37.7601	412.209	27.4741
-37.75584	413.567	27.54248
-37.7487	411.345	27.61084
-37.7448	409.615	27.6792
-37.7381	408.5932	27.7476
-37.7318	407.332	27.8159
-37.7262	404.797	27.8843
-37.72081	406.083	27.9526
-37.7146	411.78	28.021
-37.7092	411.289	28.0894
-37.7036	412.92	28.1577
-37.6994	413.9743	28.2261
-37.6914	410.77	28.2944
-37.6878	409.419	28.3628
-37.68103	408.657	28.4312
-37.6756	406.684	28.4995
-37.6704	402.564	28.5679
-37.6641	405.041	28.63623
-37.6584	409.6	28.70459
-37.6522	410.069	28.7729
-37.6464	410.738	28.8413
-37.6413	412.988	28.9097
-37.635	412.707	28.978
-37.6301	411.347	29.0464
-37.6235	409.691	29.1147
-37.6184	406.53	29.1831
-37.6132	403.946	29.2515
-37.6071	405.992	29.3198
-37.6021	407.522	29.3882
-37.5946	407.585	29.4565
-37.589	410.647	29.5249
-37.5838	412.213	29.5933
-37.5785	413.756	29.6616
-37.5733	412.5419	29.72998
-37.56776	408.951	29.79834
-37.5607	405.467	29.8667
-37.5556	403.99	29.9351
-37.5494	406.055	30.0034
-37.54491	403.972	30.0718
-37.5378	406.729	30.1401
-37.5322	408.858	30.2085
-37.5276	409.5686	30.2769
-37.5224	413.819	30.3452
-37.515	413.996	30.4136
-37.5104	411.707	30.4819
-37.504	406.168	30.5503
-37.4993	406.481	30.6187
-37.4921	406.731	30.687
-37.4873	402.643	30.7554
-37.4813	405.016	30.82373
-37.4759	407.967	30.89209
-37.4708	407.716	30.9604
-37.46442	412.0571	31.0288
-37.4589	413.34	31.0972
-37.453	410.161	31.1655
-37.4482	405.915	31.2339
-37.4417	406.512	31.3022
-37.4355	405.489	31.3706
-37.4313	402.152	31.439
-37.4245	404.762	31.5073
-37.4198	406.432	31.5757
-37.4122	404.213	31.644
-37.407	409.778	31.7124
-37.4012	412.365	31.7808
-37.3957	408.8428	31.8491
-37.3901	406.168	31.91748
-37.3849	408.657	31.98584
-37.3795	406.2258	32.0542
-37.3738	401.841	32.1226
-37.3681	403.154	32.1909
-37.36145	404.733	32.2593
-37.3578	404.325	32.3276
-37.3507	407.005	32.396
-37.3451	411.787	32.4644
-37.3391	408.334	32.5327
-37.3349	406.843	32.6011
-37.3274	410.697	32.6694
-37.322	406.23	32.7378
-37.3165	401.173	32.8062
-37.3099	404.175	32.8745
-37.30431	401.315	32.9429
-37.2993	401.8999	33.01123
-37.29306	407.388	33.07959
-37.2871	409.344	33.1479
-37.2833	405.364	33.2163
-37.2767	406.568	33.2847
-37.2716	410.896	33.353
-37.2639	408.685	33.4214
-37.2592	401.763	33.4897
-37.253	403.1008	33.5581
-37.2483	401.253	33.6265
-37.2417	402.401	33.6948
-37.2363	402.553	33.7632
-37.2317	403.33	33.8315
-37.2249	403.618	33.8999
-37.2187	406.672	33.9683
-37.21339	409.9277	34.0366
-37.208	406.614	34.10498
-37.2015	403.794	34.17334
-37.1956	403.101	34.2417
-37.1902	400.701	34.3101
-37.1853	400.926	34.3784
-37.1794	402.179	34.4468
-37.1745	403.097	34.5151
-37.1679	401.271	34.5835
-37.1631	404.46	34.6519
-37.1575	408.76	34.7202
-37.1516	406.716	34.7886
-37.1456	405.775	34.8569
-37.139	403.702	34.9253
-37.1326	400.827	34.9937
-37.1284	399.069	35.062
-37.1232	400.957	35.1304
-37.1174	397.64	35.19873
-37.1105	398.531	35.26709
-37.106	402.533	35.3354
-37.1001	404.755	35.4038
-37.0942	402.64	35.4722
-37.0887	404.563	35.5405
-37.0813	400.582	35.6089
-37.0772	400.209	35.6772
-37.0717	398.221	35.7456
-37.0655	393.586	35.814
-37.0594	391.186	35.8823
-37.05405	389.971	35.9507
-37.0489	339.209	36.019
-37.0419	-39.74366	36.0874
-37.0359	-38.0393	36.1558
-37.0313	-39.6977	36.2241
-37.0246	-43.3238	36.29248
-37.0197	-41.522	36.36084
-37.0137	-41.8472	36.4292
-37.00845	-45.3354	36.4976
-37.0036	-49.4166	36.5659
-36.9974	-45.8233	36.6343
-36.9914	-43.0893	36.7026
-36.9864	-42.0464	36.771
-36.9798	-40.18	36.8394
-36.9731	-38.44	36.9077
-36.9679	-41.0935	36.9761
-36.9642	-40.1745	37.0444
-36.9582	-38.9737	37.1128
-36.95208	-46.4271	37.1812
-36.9458	-48.9604	37.2495
-36.9407	-46.6932	37.3179
-36.9343	-44.51075	37.38623
-36.9296	-46.954	37.45459
-36.9228	-41.4096	37.5229
-36.9168	-39.9899	37.5913
-36.9111	-40.7548	37.6597
-36.9066	-37.2711	37.728
-36.8993	-38.0685	37.7964
-36.8936	-42.9994	37.8647
-36.8884	-48.5888	37.9331
-36.8889	-46.985	37.9429