File: data/processed_data_files/tensile/0.254_hd_uprint_typeiv_4545_r(2).dat
MTS793|BTW|ENU|1|2|.|/|:|1|0|0|A

Data Header:			0.254_hd_uprint_typeiv_4545_r0			Time:	20.0303	s	4/13/2019 7:14:06 PM
Data Acquisition:	Timed
Station Name:	ft40.cfg
Test File Name:	monotonic_0.2540_typeiv_hd_4545_uprint.tst
Displacement	Force	Running Time
mm	N	s
-40.0399	-145.983	0.03515625
-40.037	-133.186	0.103516
-40.0319	-123.648	0.171875
-40.0259	-116.211	0.240234
-40.0213	-112.6136	0.308594
-40.0149	-106.638	0.376953
-40.0085	-109.66	0.4453125
-40.00312	-111.823	0.513672
-39.9972	-114.0357	0.582031
-39.9925	-116.964	0.650391
-39.9872	-113.248	0.71875
-39.9804	-105.284	0.787109
-39.975	-94.0456	0.855469
-39.9695	-87.4022	0.923828
-39.964	-78.7533	0.9921875
-39.959	-70.5905	1.06055
-39.9538	-69.6453	1.12891
-39.94709	-74.9868	1.19727
-39.9406	-77.0586	1.265625
-39.9351	-79.0747	1.33398
-39.9305	-79.9516	1.40234
-39.924	-73.5851	1.4707
-39.9188	-66.02993	1.53906
-39.9131	-59.9568	1.60742
-39.9065	-51.2754	1.67578
-39.90197	-38.1225	1.74414
-39.89584	-34.3128	1.8125
-39.8911	-37.6406	1.88086
-39.8843	-39.4567	1.94922
-39.8794	-42.37574	2.01758
-39.87384	-47.1235	2.08594
-39.868	-43.6205	2.1543
-39.8619	-37.5885	2.22266
-39.8573	-33.1627	2.29102
-39.8494	-22.9479	2.359375
-39.845	-9.18532	2.42773
-39.8388	-3.36089	2.49609
-39.8332	-1.995275	2.56445
-39.82729	-1.07109	2.63281
-39.8217	-4.02109	2.70117
-39.81617	-9.86362	2.76953
-39.8114	-9.4977	2.83789
-39.8066	-9.052269	2.90625
-39.7982	-4.45626	2.97461
-39.7929	3.18043	3.04297
-39.7879	18.9995	3.11133
-39.7814	27.676	3.17969
-39.7769	30.6794	3.24805
-39.7713	34.9803	3.31641
-39.764	33.3098	3.38477
-39.7598	27.8157	3.453125
-39.753	26.209	3.52148
-39.7478	24.4847	3.58984
-39.7424	23.8766	3.6582
-39.7375	31.6291	3.72656
-39.732	46.4356	3.79492
-39.7255	56.4437	3.86328
-39.72	63.3009	3.93164
-39.7146	69.6874	4
-39.7083	68.73558	4.06836
-39.7033	68.3616	4.13672
-39.6965	63.05822	4.20508
-39.69088	57.6666	4.27344
-39.686	58.9195	4.3418
-39.6797	62.6018	4.41016
-39.67527	72.8916	4.47852
-39.6682	82.2534	4.546875
-39.6628	93.7881	4.61523
-39.6566	101.222	4.68359
-39.6513	102.278	4.75195
-39.6448	103.505	4.82031
-39.6393	98.3198	4.88867
-39.6335	93.2397	4.95703
-39.6284	90.9929	5.02539
-39.6225	93.0384	5.09375
-39.6166	99.8013	5.16211
-39.6123	109.189	5.23047
-39.6056	119.252	5.29883
-39.59996	128.949	5.36719
-39.5942	135.723	5.43555
-39.5891	138.997	5.50391
-39.5828	136.911	5.57227
-39.5765	130.094	5.640625
-39.571	126.588	5.70898
-39.5663	127.726	5.77734
-39.55994	130.0694	5.8457
-39.5549	135.737	5.91406
-39.5473	146.989	5.98242
-39.5435	156.732	6.05078
-39.5383	165.587	6.11914
-39.5314	171.298	6.1875
-39.5259	171.35	6.25586
-39.52002	165.79	6.32422
-39.5154	161.726	6.39258
-39.5087	163.728	6.46094
-39.50359	160.363	6.5293
-39.498	163.699	6.59766
-39.4924	174.537	6.66602
-39.4866	182.005	6.734375
-39.4805	192.532	6.80273
-39.4747	201.449	6.87109
-39.4698	205.308	6.93945
-39.4639	201.306	7.00781
-39.4575	198.493	7.07617
-39.4516	197.823	7.14453
-39.4478	193.698	7.21289
-39.4405	193.4032	7.28125
-39.4351	201.2648	7.34961
-39.4294	207.991	7.41797
-39.4235	218.163	7.48633
-39.41721	230.589	7.55469
-39.4124	237.325	7.62305
-39.406	233.878	7.69141
-39.4002	234.486	7.75977
-39.3948	234.899	7.828125
-39.3888	226.608	7.89648
-39.3843	226.0874	7.96484
-39.3781	229.166	8.0332
-39.37336	234.455	8.10156
-39.3681	243.949	8.16992
-39.3612	255.954	8.23828
-39.3554	263.956	8.30664
-39.3506	265.458	8.375
-39.3444	268.326	8.44336
-39.3375	269.007	8.51172
-39.3322	262.965	8.58008
-39.328	259.24	8.64844
-39.3218	259.193	8.7168
-39.3154	263.349	8.78516
-39.3095	269.444	8.85352
-39.3038	279.916	8.921875
-39.2998	288.814	8.99023
-39.2929	292.769	9.05859
-39.287	300.7883	9.12695
-39.2813	302.517	9.19531
-39.2751	297.805	9.26367
-39.271	294.484	9.33203
-39.2654	291.894	9.40039
-39.2598	291.642	9.46875
-39.2534	293.989	9.53711
-39.2469	301.988	9.60547
-39.24192	310.227	9.67383
-39.2355	317.839	9.74219
-39.2306	328.034	9.81055
-39.2255	332.176	9.87891
-39.2192	331.205	9.94727
-39.2135	329.2699	10.0156
-39.2069	325.541	10.084
-39.2026	321.698	10.1523
-39.1954	322.95	10.2207
-39.1911	326.335	10.2891
-39.1853	332.6972	10.3574
-39.1794	342.3176	10.4258
-39.1739	352.167	10.4941
-39.1663	358.177	10.5625
-39.1621	360.64	10.6309
-39.1565	360.623	10.6992
-39.1504	356.138	10.7676
-39.1455	353.139	10.8359
-39.1386	352.16	10.9043
-39.1335	351.989	10.9727
-39.1286	354.709	11.041
-39.123	361.986	11.1094
-39.1169	374.53	11.1777
-39.1113	382.097	11.2461
-39.1053	387.753	11.3145
-39.099	391.737	11.3828
-39.0928	387.474	11.4512
-39.08865	383.659	11.5195
-39.0828	382.482	11.5879
-39.0761	378.755	11.65625
-39.0711	376.258	11.7246
-39.0659	383.273	11.793
-39.0595	396.174	11.8613
-39.0529	401.805	11.9297
-39.0469	411.32	11.998
-39.0415	416.107	12.0664
-39.03672	414.0654	12.1348
-39.0311	413.041	12.2031
-39.0257	409.756	12.2715
-39.0199	404.621	12.3398
-39.0151	400.604	12.4082
-39.0085	405.174	12.4766
-39.0024	416.247	12.5449
-38.9967	423.035	12.6133
-38.99017	431.283	12.6816
-38.9847	440.5105	12.75
-38.97979	439.666	12.8184
-38.9738	440.724	12.8867
-38.9678	437.043	12.9551
-38.9625	432.051	13.0234
-38.9572	425.396	13.0918
-38.9515	427.792	13.1602
-38.9454	435.459	13.2285
-38.9401	440.091	13.2969
-38.9342	448.995	13.3652
-38.9284	457.096	13.4336
-38.9226	462.577	13.502
-38.9161	463.683	13.5703
-38.9111	462.356	13.6387
-38.906	456.913	13.707
-38.8994	449.017	13.7754
-38.8943	448.236	13.84375
-38.8887	451.9819	13.9121
-38.8831	454.163	13.9805
-38.87772	463.2684	14.0488
-38.8715	473.482	14.1172
-38.86541	480.053	14.1855
-38.8604	483.98	14.2539
-38.8543	484.322	14.3223
-38.8486	479.288	14.3906
-38.8431	471.807	14.459
-38.8382	470.616	14.5273
-38.8313	469.76	14.5957
-38.826	468.777	14.6641
-38.82	474.461	14.7324
-38.8148	483.417	14.8008
-38.8097	492.806	14.8691
-38.8025	497.957	14.9375
-38.7991	500.952	15.0059
-38.7919	496.744	15.0742
-38.7854	489.787	15.1426
-38.78072	487.491	15.2109
-38.7743	481.9678	15.2793
-38.7698	479.831	15.3477
-38.7628	483.7	15.416
-38.7572	490.736	15.4844
-38.7527	498.507	15.5527
-38.7455	506.718	15.6211
-38.741	508.899	15.6895
-38.7351	507.5885	15.7578
-38.7296	502.945	15.8262
-38.7232	500.5141	15.8945
-38.71841	493.075	15.9629
-38.7122	488.249	16.03125
-38.7071	489.416	16.0996
-38.7002	490.518	16.168
-38.6953	499.1134	16.2363
-38.6891	507.999	16.3047
-38.684	512.445	16.373
-38.6764	512.498	16.4414
-38.6721	511.4267	16.5098
-38.665	509.495	16.5781
-38.6611	500.404	16.6465
-38.6542	494.8	16.7148
-38.6494	492.362	16.7832
-38.64304	489.558	16.8516
-38.6381	495.304	16.9199
-38.633	504.113	16.9883
-38.6264	509.446	17.0566
-38.6203	511.431	17.125
-38.6147	513.145	17.1934
-38.6098	513.236	17.2617
-38.6036	504.909	17.3301
-38.597	495.793	17.3984
-38.5913	493.393	17.4668
-38.587	488.628	17.5352
-38.581	491.45	17.6035
-38.5753	497.76	17.6719
-38.5701	504.701	17.7402
-38.5632	506.643	17.8086
-38.5578	510.556	17.877
-38.5537	513.441	17.9453
-38.546	506.244	18.0137
-38.5418	499.348	18.082
-38.5341	493.41	18.1504
-38.5303	487.474	18.21875
-38.525	487.8356	18.2871
-38.5179	492.9512	18.3555
-38.5122	496.016	18.4238
-38.5073	498.762	18.4922
-38.5013	506.522	18.5605
-38.4959	511.754	18.6289
-38.49	508.198	18.6973
-38.4836	501.844	18.7656
-38.478	496.851	18.834
-38.472	487.986	18.9023
-38.467	485.459	18.9707
-38.4606	486.626	19.0391
-38.45557	489.685	19.1074
-38.4491	492.913	19.1758
-38.4449	499.906	19.2441
-38.4376	508.573	19.3125
-38.4327	508.789	19.3809
-38.4272	503.866	19.4492
-38.42207	499.468	19.5176
-38.4157	490.959	19.5859
-38.41	485.342	19.6543
-38.405	484.008	19.7227
-38.3984	484.443	19.791
-38.3927	487.175	19.8594
-38.38755	494.772	19.9277
-38.3832	502.873	19.9961
-38.3789	486.022	20.0254

Data Header:			0.254_hd_uprint_typeiv_4545_r0			Time:	40.0303	s	4/13/2019 7:14:26 PM
Data Acquisition:	Timed
Station Name:	ft40.cfg
Test File Name:	monotonic_0.2540_typeiv_hd_4545_uprint.tst
Displacement	Force	Running Time
mm	N	s
-38.37923	481.945	20.0352
-38.3732	482.973	20.1035
-38.3674	490.164	20.1719
-38.3615	496.901	20.2402
-38.3557	500.126	20.3086
-38.3508	501.895	20.377
-38.3436	505.766	20.4453
-38.3371	499.898	20.5137
-38.3326	491.229	20.582
-38.327	487.3414	20.6504
-38.3218	482.209	20.71875
-38.3159	480.686	20.7871
-38.3109	481.277	20.8555
-38.3047	490.4783	20.9238
-38.3	494.192	20.9922
-38.2931	497.166	21.0605
-38.2875	506.891	21.1289
-38.2821	502.025	21.1973
-38.2762	493.609	21.2656
-38.2694	489.778	21.334
-38.2646	482.925	21.4023
-38.2586	480.088	21.4707
-38.2529	480.221	21.5391
-38.2477	483.668	21.6074
-38.2412	489.559	21.6758
-38.2361	495.048	21.7441
-38.2292	500.665	21.8125
-38.2243	501.515	21.8809
-38.2187	498.84	21.9492
-38.2129	491.605	22.0176
-38.2081	485.605	22.0859
-38.2019	481.135	22.1543
-38.1964	478.636	22.2227
-38.1899	477.826	22.291
-38.1847	481.668	22.3594
-38.1789	488.551	22.4277
-38.175	497.838	22.4961
-38.168	499.909	22.5645
-38.1614	499.029	22.6328
-38.1549	495.9057	22.7012
-38.15131	488.524	22.7695
-38.1461	483.803	22.8379
-38.1393	478.72	22.90625
-38.1337	476.512	22.9746
-38.12875	477.329	23.043
-38.1232	483.893	23.1113
-38.1171	492.035	23.1797
-38.1109	497.367	23.248
-38.1053	498.943	23.3164
-38.0995	497.402	23.3848
-38.093	491.896	23.4531
-38.0878	486.481	23.5215
-38.08176	482.389	23.5898
-38.0764	474.971	23.6582
-38.0704	474.731	23.7266
-38.0651	480.676	23.7949
-38.059	487.583	23.8633
-38.0538	491.878	23.9316
-38.0485	497.479	24
-38.043	499.878	24.0684
-38.0371	494.07	24.1367
-38.0312	489.85	24.2051
-38.0258	483.796	24.2734
-38.0197	475.519	24.3418
-38.0141	472.273	24.4102
-38.0086	476.274	24.4785
-38.003	483.7569	24.5469
-37.9974	485.339	24.6152
-37.9914	494.313	24.6836
-37.9854	498.06	24.752
-37.9792	495.591	24.8203
-37.9742	492.775	24.8887
-37.9688	488.424	24.957
-37.9632	478.799	25.0254
-37.9578	472.253	25.09375
-37.9521	474.414	25.1621
-37.9463	478.599	25.2305
-37.94	482.186	25.2988
-37.9349	490.0701	25.3672
-37.9293	496.839	25.4355
-37.9223	495.697	25.5039
-37.917	493.924	25.5723
-37.9108	492.245	25.6406
-37.9046	482.12	25.709
-37.9009	475.051	25.7773
-37.8945	474.119	25.8457
-37.8882	476.906	25.9141
-37.8827	477.882	25.9824
-37.8774	483.904	26.0508
-37.87162	492.756	26.1191
-37.865	496.309	26.1875
-37.86	495.854	26.2559
-37.8542	494.489	26.3242
-37.8484	485.141	26.3926
-37.8435	476.745	26.4609
-37.83744	474.522	26.5293
-37.8313	473.706	26.5977
-37.8256	473.323	26.666
-37.8214	478.436	26.7344
-37.81509	486.028	26.8027
-37.80941	492.317	26.8711
-37.8032	495.4	26.9395
-37.7969	495.233	27.0078
-37.7928	489.869	27.0762
-37.7873	481.187	27.1445
-37.7809	476.083	27.2129
-37.77433	474.157	27.28125
-37.7687	471.384	27.3496
-37.7641	475.073	27.418
-37.7578	480.173	27.4863
-37.7526	488.246	27.5547
-37.7458	493.911	27.623
-37.7415	497.112	27.6914
-37.735	490.9549	27.7598
-37.73	484.208	27.8281
-37.7238	481.8988	27.8965
-37.7183	474.802	27.9648
-37.71241	470.651	28.0332
-37.7064	471.256	28.1016
-37.701	475.837	28.1699
-37.6946	483.875	28.2383
-37.6897	491.6795	28.3066
-37.68446	493.079	28.375
-37.6774	491.646	28.4434
-37.673	487.817	28.5117
-37.6659	485.219	28.5801
-37.6605	476.785	28.6484
-37.6548	470.309	28.7168
-37.6496	469.3161	28.7852
-37.6431	470.972	28.8535
-37.638	477.986	28.9219
-37.6325	485.489	28.9902
-37.62743	490.1983	29.0586
-37.6205	490.764	29.127
-37.6145	489.345	29.1953
-37.609	489.574	29.2637
-37.6044	480.496	29.332
-37.5989	473.3233	29.4004
-37.5925	470.039	29.46875
-37.5864	468.734	29.5371
-37.5816	472.914	29.6055
-37.5753	479.658	29.6738
-37.5703	485.777	29.7422
-37.5637	487.7796	29.8105
-37.5587	489.8013	29.8789
-37.5533	491.177	29.9473
-37.5475	484.433	30.0156
-37.5419	477.45	30.084
-37.5368	473.147	30.1523
-37.5292	468.7742	30.2207
-37.5242	470.223	30.2891
-37.5197	475.416	30.3574
-37.5129	481.766	30.4258
-37.5073	484.254	30.4941
-37.5029	488.368	30.5625
-37.4964	493.98	30.6309
-37.49118	488.323	30.6992
-37.48452	479.366	30.7676
-37.4798	475.883	30.8359
-37.4727	469.771	30.9043
-37.4686	468.1	30.9727
-37.4622	471.602	31.041
-37.4555	475.207	31.1094
-37.45076	478.68	31.1777
-37.4443	484.843	31.2461
-37.4392	491.339	31.3145
-37.4333	491.192	31.3828
-37.4267	484.414	31.4512
-37.4227	479.204	31.5195
-37.4164	473.396	31.5879
-37.4109	469.228	31.65625
-37.405	468.911	31.7246
-37.3997	470.642	31.793
-37.3948	475.115	31.8613
-37.3878	481.276	31.9297
-37.3817	488.479	31.998
-37.3751	490.796	32.0664
-37.3703	487.2128	32.1348
-37.3656	482.4776	32.2031
-37.3598	475.573	32.2715
-37.3541	470.179	32.3398
-37.3485	467.306	32.4082
-37.342	465.236	32.4766
-37.3369	468.74	32.5449
-37.3312	477.027	32.6133
-37.3259	485.8363	32.6816
-37.3192	487.523	32.75
-37.3133	488.589	32.8184
-37.3085	484.784	32.8867
-37.3022	478.932	32.9551
-37.2963	473.877	33.0234
-37.2912	470.961	33.0918
-37.2859	464.662	33.1602
-37.2797	464.942	33.2285
-37.2729	471.27	33.2969
-37.267	479.769	33.3652
-37.2613	483.467	33.4336
-37.2567	487.805	33.502
-37.2505	487.656	33.5703
-37.2445	482.263	33.6387
-37.2394	478.438	33.707
-37.2336	471.3175	33.7754
-37.2292	464.18	33.84375
-37.2215	462.091	33.9121
-37.2166	470.446	33.9805
-37.2116	475.218	34.0488
-37.2042	479.823	34.1172
-37.1989	485.813	34.1855
-37.1939	488.47	34.2539
-37.189	484.292	34.3223
-37.1827	480.147	34.3906
-37.1762	475.8002	34.459
-37.1711	466.017	34.5273
-37.1656	462.674	34.5957
-37.1594	466.987	34.6641
-37.1537	470.607	34.7324
-37.1484	474.446	34.8008
-37.143	481.474	34.8691
-37.1365	487.224	34.9375
-37.1319	485.565	35.0059
-37.1254	481.973	35.0742
-37.1207	479.315	35.1426
-37.11401	469.104	35.2109
-37.1086	462.6904	35.2793
-37.1027	465.585	35.3477
-37.0974	466.094	35.416
-37.0919	470.637	35.4844
-37.086	476.625	35.5527
-37.0799	483.126	35.6211
-37.0742	487.979	35.6895
-37.0682	486.596	35.7578
-37.063	481.802	35.8262
-37.057	474.346	35.8945
-37.05217	464.631	35.9629
-37.047	464.209	36.03125
-37.04007	463.532	36.0996
-37.0352	466.16	36.168
-37.0282	471.977	36.2363
-37.0232	479.363	36.3047
-37.01683	485.783	36.373
-37.0119	486.024	36.4414
-37.0052	481.956	36.5098
-37.0017	475.918	36.5781
-36.9945	468.4126	36.6465
-36.988	465.593	36.7148
-36.9836	463.613	36.7832
-36.9769	463.265	36.8516
-36.9729	468.303	36.9199
-36.9656	473.3624	36.9883
-36.9611	480.786	37.0566
-36.955	484.961	37.125
-36.9486	485.023	37.1934
-36.9429	477.471	37.2617
-36.9371	472.86	37.3301
-36.933	469.807	37.3984
-36.9267	463.086	37.4668
-36.92	460.0668	37.5352
-36.9155	464.528	37.6035
-36.9092	467.803	37.6719
-36.9043	476.025	37.7402
-36.8975	482.218	37.8086
-36.8924	482.721	37.877
-36.8874	478.9075	37.9453
-36.8817	474.527	38.0137
-36.8758	470.223	38.082
-36.8702	462.268	38.1504
-36.8635	458.427	38.21875
-36.8588	459.592	38.2871
-36.8526	461.701	38.3555
-36.84705	469.905	38.4238
-36.8411	476.357	38.4922
-36.83453	478.479	38.5605
-36.83041	477.079	38.6289
-36.8236	475.43	38.6973
-36.8182	473.556	38.7656
-36.8121	462.802	38.834
-36.8066	459.582	38.9023
-36.801	457.208	38.9707
-36.7954	455.2868	39.0391
-36.7891	462.082	39.1074
-36.7839	469.341	39.1758
-36.7777	474.356	39.2441
-36.7724	473.133	39.3125
-36.7671	473.984	39.3809
-36.7606	471.0954	39.4492
-36.7559	462.459	39.5176
-36.7494	456.742	39.5859
-36.7448	452.4874	39.6543
-36.7384	448.823	39.7227
-36.7325	453.211	39.791
-36.72731	458.739	39.8594
-36.7205	461.198	39.9277
-36.7147	462.49	39.9961
-36.7129	450.016	40.0254

Data Header:			0.254_hd_uprint_typeiv_4545_r0			Time:	42.0249	s	4/13/2019 7:14:28 PM
Data Acquisition:	Timed
Station Name:	ft40.cfg
Test File Name:	monotonic_0.2540_typeiv_hd_4545_uprint.tst
Displacement	Force	Running Time
mm	N	s
-36.7132	445.564	40.0352
-36.71117	451.093	40.0449
-36.7108	464.334	40.0547
-36.7095	465.794	40.0645
-36.70969	461.703	40.0742
-36.70924	451.884	40.084
-36.7073	443.391	40.09375
-36.7074	445.467	40.1035
-36.7063	452.3624	40.1133
-36.7057	460.595	40.123
-36.7035	463.543	40.1328
-36.7028	452.296	40.1426
-36.7036	441.524	40.1523
-36.7034	439.24	40.1621
-36.7015	448.117	40.1719
-36.6996	457.707	40.1816
-36.6997	460.949	40.1914
-36.6992	450.609	40.2012
-36.6969	150.397	40.2109
-36.695	-48.1597	40.2207
-36.6931	-41.4109	40.2305
-36.6932	-39.2751	40.2402
-36.6922	-30.2524	40.25
-36.6921	-30.759	40.2598
-36.6919	-46.7532	40.2695
-36.6915	-51.8924	40.2793
-36.6888	-50.7213	40.2891
-36.6894	-40.6916	40.2988
-36.6893	-31.6029	40.3086
-36.6874	-33.95042	40.3184
-36.6874	-41.2024	40.3281
-36.6865	-48.2069	40.3379
-36.6859	-53.45	40.3477
-36.6848	-42.7387	40.3574
-36.6843	-34.1784	40.3672
-36.6836	-28.9006	40.377
-36.683	-35.3953	40.3867
-36.6821	-48.8723	40.3965
-36.6821	-50.8663	40.40625
-36.68124	-44.94503	40.416
-36.6792	-35.9134	40.4258
-36.678	-31.5075	40.4355
-36.6778	-36.7643	40.4453
-36.6764	-42.3782	40.4551
-36.67532	-49.91029	40.4648
-36.67667	-49.4617	40.4746
-36.674	-41.2839	40.4844
-36.6744	-32.186	40.4941
-36.6721	-31.2142	40.5039
-36.673	-42.252	40.5137
-36.6717	-49.7119	40.5234
-36.6705	-49.2318	40.5332
-36.6706	-41.6325	40.543
-36.6696	-35.4007	40.5527
-36.6691	-33.07922	40.5625
-36.6681	-36.803	40.5723
-36.6663	-42.7699	40.582
-36.6661	-49.7719	40.5918
-36.66478	-51.544	40.6016
-36.6638	-40.07	40.6113
-36.6632	-31.5536	40.6211
-36.6626	-34.5456	40.6309
-36.6621	-40.83559	40.6406
-36.6611	-50.4643	40.6504
-36.66021	-48.4104	40.6602
-36.6596	-44.0325	40.6699
-36.6579	-37.8462	40.6797
-36.658	-32.3608	40.6895
-36.6567	-37.67712	40.6992
-36.6564	-46.209	40.709
-36.6547	-51.0132	40.71875
-36.6557	-48.0283	40.7285
-36.65374	-34.6192	40.7383
-36.6523	-32.7537	40.748
-36.6517	-34.9797	40.7578
-36.6523	-44.2028	40.7676
-36.6514	-50.5436	40.7773
-36.65	-49.1121	40.7871
-36.648	-43.2158	40.7969
-36.6478	-34.3475	40.8066
-36.6478	-31.2354	40.8164
-36.646	-39.1135	40.8262
-36.6456	-48.9493	40.8359
-36.645	-53.2331	40.8457
-36.6447	-44.4753	40.8555
-36.6431	-34.03912	40.8652
-36.6413	-31.47044	40.875
-36.6418	-37.8058	40.8848
-36.6406	-45.642	40.8945
-36.6402	-53.3495	40.9043
-36.6392	-49.1664	40.9141
-36.63932	-38.3726	40.9238
-36.638	-32.22887	40.9336
-36.6366	-32.144	40.9434
-36.63625	-44.34425	40.9531
-36.6349	-52.4966	40.9629
-36.6338	-50.2369	40.9727
-36.6341	-40.2578	40.9824
-36.6322	-32.92168	40.9922
-36.631	-33.8968	41.002
-36.63105	-40.7129	41.0117
-36.63023	-46.2324	41.0215
-36.6296	-52.8417	41.03125
-36.6289	-45.3601	41.041
-36.6275	-36.318	41.0508
-36.6272	-29.9499	41.0605
-36.628	-35.5234	41.0703
-36.6248	-46.75174	41.0801
-36.6246	-50.6618	41.0898
-36.6242	-47.3641	41.0996
-36.6223	-37.9983	41.1094
-36.6213	-34.5336	41.1191
-36.6212	-34.4508	41.1289
-36.62006	-40.2815	41.1387
-36.6193	-47.8092	41.1484
-36.6181	-49.1779	41.1582
-36.6177	-45.3956	41.168
-36.6169	-35.8691	41.1777
-36.61599	-31.1674	41.1875
-36.6157	-39.0677	41.1973
-36.6148	-47.3391	41.207
-36.6129	-49.6356	41.2168
-36.6131	-45.5904	41.2266
-36.6122	-41.0106	41.2363
-36.6109	-34.3421	41.2461
-36.6101	-35.6589	41.2559
-36.6099	-39.8705	41.2656
-36.6085	-50.4189	41.2754
-36.6086	-50.9122	41.2852
-36.6084	-41.20314	41.2949
-36.6073	-35.2473	41.3047
-36.605	-34.7224	41.3145
-36.6059	-36.891	41.3242
-36.6038	-49.3648	41.334
-36.6029	-49.6689	41.34375
-36.6036	-46.97298	41.3535
-36.6003	-39.5363	41.3633
-36.60001	-32.6767	41.373
-36.5998	-35.0462	41.3828
-36.5986	-42.73394	41.3926
-36.5981	-52.25808	41.4023
-36.5972	-51.9351	41.4121
-36.597	-39.8221	41.4219
-36.59581	-34.60569	41.4316
-36.5953	-31.7925	41.4414
-36.5958	-41.0676	41.4512
-36.5942	-48.65625	41.4609
-36.5932	-50.4709	41.4707
-36.5904	-47.85133	41.4805
-36.5906	-36.4418	41.4902
-36.591	-30.2152	41.5
-36.5894	-37.0564	41.5098
-36.5882	-47.0805	41.5195
-36.5883	-53.8922	41.5293
-36.587	-46.658	41.5391
-36.5847	-35.99139	41.5488
-36.5852	-33.6323	41.5586
-36.5842	-35.3398	41.5684
-36.5838	-43.6966	41.5781
-36.5828	-49.6505	41.5879
-36.5822	-51.3922	41.5977
-36.5807	-42.4384	41.6074
-36.57983	-33.1265	41.6172
-36.5789	-30.4101	41.627
-36.5774	-39.7153	41.6367
-36.5777	-51.5199	41.6465
-36.5777	-53.2011	41.65625
-36.5757	-45.0441	41.666
-36.576	-34.41153	41.6758
-36.5743	-34.88868	41.6855
-36.5742	-36.512	41.6953
-36.5733	-43.3319	41.7051
-36.5718	-50.4925	41.7148
-36.571	-47.7622	41.7246
-36.5704	-38.9721	41.7344
-36.5688	-31.5905	41.7441
-36.5687	-33.5384	41.7539
-36.5691	-44.8793	41.7637
-36.5676	-49.5031	41.7734
-36.5663	-49.0224	41.7832
-36.5659	-41.0369	41.793
-36.5645	-35.9609	41.8027
-36.5635	-33.8284	41.8125
-36.5627	-36.4492	41.8223
-36.5627	-46.4018	41.832
-36.5609	-50.395	41.8418
-36.5609	-47.832	41.8516
-36.5594	-39.231	41.8613
-36.5591	-30.2317	41.8711
-36.5581	-36.01601	41.8809
-36.55761	-43.5377	41.8906
-36.5563	-48.8914	41.9004
-36.5563	-48.7575	41.9102
-36.55582	-40.7121	41.9199
-36.55415	-36.4446	41.9297
-36.553	-35.0664	41.9395
-36.553	-37.8056	41.9492
-36.5515	-47.4328	41.959
-36.5518	-52.7457	41.96875
-36.5517	-46.9627	41.9785
-36.5503	-36.6738	41.9883
-36.5479	-30.56419	41.998
-36.5477	-36.0609	42.0078
-36.5472	-47.3188	42.0176