File: data/processed_data_files/tensile/0.254_hd_dimension_typeiv_090_r(10).dat
MTS793|BTW|ENU|1|2|.|/|:|1|0|0|A

Data Header:			0.254_hd_dimension_typeiv_090_r0			Time:	20.0188	s	4/14/2019 12:42:45 AM
Data Acquisition:	Timed
Station Name:	ft40.cfg
Test File Name:	monotonic_0.2540_typeiv_hd_090_dimension.tst
Displacement	Force	Running Time
mm	N	s
-40.0415	-241.972	0.0227051
-40.0408	-242.879	0.0910645
-40.0351	-240.2119	0.159424
-40.0294	-234.435	0.2277832
-40.02401	-230.976	0.296143
-40.0181	-225.367	0.364502
-40.0134	-221.958	0.432861
-40.0077	-222.065	0.5012207
-40.0013	-223.51	0.56958
-39.9964	-221.217	0.637939
-39.99	-217.69	0.706299
-39.9847	-214.196	0.7746582
-39.97887	-208.088	0.843018
-39.9723	-202.01	0.911377
-39.9675	-199.054	0.979736
-39.962	-193.904	1.0481
-39.95602	-190.922	1.11646
-39.9505	-190.602	1.18481
-39.9447	-191.272	1.25317
-39.9393	-187.343	1.32153
-39.93343	-183.452	1.38989
-39.9286	-179.982	1.458252
-39.9215	-177.293	1.52661
-39.9166	-171.018	1.59497
-39.90892	-168.815	1.66333
-39.9042	-163.015	1.73169
-39.8986	-156.774	1.80005
-39.8921	-155.497	1.86841
-39.88773	-156.746	1.93677
-39.8811	-155.077	2.005127
-39.8759	-148.742	2.07349
-39.8703	-147.777	2.14185
-39.86525	-145.33	2.21021
-39.8587	-139.088	2.27856
-39.8536	-134.593	2.34692
-39.84819	-129.768	2.41528
-39.8419	-124.166	2.48364
-39.8366	-120.159	2.552002
-39.831	-121.182	2.62036
-39.8253	-120.154	2.68872
-39.8192	-114.026	2.75708
-39.814	-113.259	2.82544
-39.8083	-114.078	2.8938
-39.8017	-107.653	2.96216
-39.79623	-101.832	3.03052
-39.7912	-96.78	3.098877
-39.78466	-92.3069	3.16724
-39.7798	-86.5	3.2356
-39.77351	-87.8749	3.30396
-39.7686	-87.4855	3.37231
-39.7617	-81.2771	3.44067
-39.7567	-81.158	3.50903
-39.7501	-80.6185	3.57739
-39.7454	-75.7483	3.645752
-39.7396	-70.34478	3.71411
-39.7334	-66.2791	3.78247
-39.7285	-61.1177	3.85083
-39.7225	-55.6355	3.91919
-39.7164	-54.6252	3.98755
-39.7108	-54.2659	4.05591
-39.7058	-48.9283	4.12427
-39.6993	-47.46846	4.192627
-39.6953	-46.1488	4.26099
-39.6886	-44.6581	4.32935
-39.6842	-40.5131	4.39771
-39.6771	-34.5235	4.46606
-39.6711	-28.8522	4.53442
-39.6655	-24.9818	4.60278
-39.6601	-22.8322	4.67114
-39.656	-20.9138	4.739502
-39.6488	-16.1537	4.80786
-39.6421	-13.3304	4.87622
-39.638	-13.1897	4.94458
-39.6322	-11.8808	5.01294
-39.6257	-9.24559	5.0813
-39.6199	-5.1456	5.14966
-39.6151	0.629454	5.21802
-39.609	6.30099	5.286377
-39.6035	8.54035	5.35474
-39.597	10.1248	5.4231
-39.592	17.4017	5.49146
-39.5861	18.0963	5.55981
-39.5797	15.6324	5.62817
-39.5746	21.5808	5.69653
-39.5688	22.8014	5.76489
-39.5632	25.5841	5.833252
-39.5574	31.1391	5.90161
-39.5521	36.5222	5.96997
-39.5464	41.0052	6.03833
-39.5406	40.987	6.10669
-39.5352	48.9026	6.17505
-39.5298	51.7809	6.24341
-39.5231	49.9725	6.31177
-39.5182	52.4728	6.380127
-39.5123	53.7883	6.44849
-39.5068	55.6731	6.51685
-39.4994	61.0788	6.58521
-39.4948	66.9893	6.65356
-39.4902	70.5609	6.72192
-39.4839	71.0568	6.79028
-39.47715	78.54969	6.85864
-39.4723	83.7759	6.927002
-39.4666	83.4157	6.99536
-39.4613	85.2415	7.06372
-39.4548	87.73867	7.13208
-39.4501	88.3156	7.20044
-39.4443	92.4648	7.2688
-39.4384	96.3519	7.33716
-39.4325	99.1408	7.40552
-39.4265	101.895	7.473877
-39.42141	107.238	7.54224
-39.4162	113.756	7.6106
-39.4109	113.586	7.67896
-39.404	116.081	7.74731
-39.3983	118.455	7.81567
-39.3919	118.998	7.88403
-39.387	122.191	7.95239
-39.3821	125.9	8.020752
-39.3752	129.1	8.08911
-39.3708	130.301	8.15747
-39.3651	134.805	8.22583
-39.3592	141.749	8.29419
-39.3534	143.575	8.36255
-39.3478	146.903	8.43091
-39.3417	147.695	8.49927
-39.3356	147.25	8.567627
-39.3291	151.949	8.63599
-39.3246	152.285	8.70435
-39.3184	154.717	8.77271
-39.3119	157.439	8.84106
-39.3073	162.996	8.90942
-39.3009	169.031	8.97778
-39.2954	171.235	9.04614
-39.2899	174.208	9.114502
-39.2844	176.835	9.18286
-39.2787	176.285	9.25122
-39.2729	179.623	9.31958
-39.2665	180.562	9.38794
-39.2618	181.772	9.4563
-39.2559	182.013	9.52466
-39.2513	189.557	9.59302
-39.2448	194.815	9.661377
-39.2388	197.971	9.72974
-39.23233	200.808	9.7981
-39.2272	204.336	9.86646
-39.2221	204.386	9.93481
-39.21664	205.311	10.0032
-39.2101	207.862	10.0715
-39.2053	207.546	10.1399
-39.1983	205.819	10.2083
-39.1929	211.579	10.2766
-39.1874	220.267	10.345
-39.1819	220.797	10.41333
-39.1762	225.131	10.4817
-39.1707	230.216	10.55
-39.164	229.832	10.6184
-39.1589	229.8855	10.6868
-39.1525	232.484	10.7551
-39.1478	232.604	10.8235
-39.1414	230.0658	10.8918
-39.1372	235.1781	10.9602
-39.1302	242.228	11.0286
-39.125	244.615	11.0969
-39.1185	247.665	11.1653
-39.1126	252.203	11.2336
-39.10709	254.226	11.302
-39.1019	256.628	11.3704
-39.0971	256.738	11.4387
-39.0906	257.529	11.50708
-39.0843	255.688	11.5754
-39.0788	257.027	11.6438
-39.0721	263.91	11.7122
-39.0676	268.03	11.7805
-39.062	269.72	11.8489
-39.05698	274.108	11.9172
-39.0502	278.181	11.9856
-39.0445	280.606	12.054
-39.0396	279.2475	12.1223
-39.0329	280.423	12.1907
-39.0282	279.272	12.259
-39.0228	278.433	12.3274
-39.01712	284.509	12.3958
-39.0106	288.329	12.4641
-39.0047	289.574	12.5325
-38.9989	294.921	12.60083
-38.9922	297.643	12.6692
-38.9875	303.245	12.7375
-38.9824	304.0155	12.8059
-38.9769	303.142	12.8743
-38.9716	301.967	12.9426
-38.9657	303.407	13.011
-38.9593	305.653	13.0793
-38.9532	307.675	13.1477
-38.9467	310.52	13.2161
-38.9428	315.407	13.2844
-38.9373	317.667	13.3528
-38.93087	322.312	13.4211
-38.926	325.686	13.4895
-38.9191	326.109	13.5579
-38.9127	323.268	13.6262
-38.9088	324.394	13.69458
-38.9032	327.598	13.7629
-38.8949	326.972	13.8313
-38.8906	328.815	13.8997
-38.886	334.138	13.968
-38.8786	337.609	14.0364
-38.875	341.78	14.1047
-38.868	345.399	14.1731
-38.8624	346.523	14.2415
-38.85775	342.7728	14.3098
-38.852	342.484	14.3782
-38.8454	346.861	14.4465
-38.83942	346.608	14.5149
-38.834	345.805	14.5833
-38.82885	352.723	14.6516
-38.8226	354.087	14.72
-38.8189	357.233	14.78833
-38.8115	363.712	14.8567
-38.8064	363.952	14.925
-38.7998	359.732	14.9934
-38.7945	359.292	15.0618
-38.7879	363.886	15.1301
-38.7829	363.688	15.1985
-38.7772	362.066	15.2668
-38.7716	365.766	15.3352
-38.7656	368.365	15.4036
-38.75975	370.93	15.4719
-38.7539	375.321	15.5403
-38.7494	378.953	15.6086
-38.7429	376.4408	15.677
-38.7375	375.911	15.7454
-38.7313	379.238	15.8137
-38.7262	379.4852	15.88208
-38.7207	375.088	15.9504
-38.7146	378.195	16.0188
-38.70842	382.65	16.0872
-38.7031	384.642	16.1555
-38.698	385.898	16.2239
-38.6895	390.796	16.2922
-38.6858	388.257	16.3606
-38.6801	389.1387	16.429
-38.6742	393.179	16.4973
-38.6691	391.042	16.5657
-38.6619	389.425	16.634
-38.6579	389.672	16.7024
-38.65176	392.453	16.7708
-38.6448	394.192	16.8391
-38.6402	396.9	16.9075
-38.6341	400.125	16.97583
-38.62912	401.591	17.0442
-38.6226	400.363	17.1125
-38.6173	403.713	17.1809
-38.612	402.045	17.2493
-38.6053	400.854	17.3176
-38.6005	399.69	17.386
-38.5959	397.836	17.4543
-38.5894	400.753	17.5227
-38.5836	404.065	17.5911
-38.578	405.4129	17.6594
-38.5718	406.034	17.7278
-38.5671	407.46	17.7961
-38.5603	410.262	17.8645
-38.5535	409.714	17.9329
-38.5493	407.477	18.0012
-38.5438	407.205	18.06958
-38.5381	405.119	18.1379
-38.532	405.258	18.2063
-38.5264	408.582	18.2747
-38.5201	411.711	18.343
-38.5151	411.353	18.4114
-38.5086	413.136	18.4797
-38.5032	417.396	18.5481
-38.4962	415.188	18.6165
-38.4928	411.84	18.6848
-38.4858	412.786	18.7532
-38.4806	412.1	18.8215
-38.47488	408.673	18.8899
-38.4697	411.171	18.9583
-38.4634	414.01	19.0266
-38.4574	412.741	19.095
-38.4522	413.1315	19.16333
-38.4461	419.714	19.2317
-38.4398	420.043	19.3
-38.4355	416.524	19.3684
-38.4288	416.97	19.4368
-38.4236	414.607	19.5051
-38.4188	411.2948	19.5735
-38.4116	412.159	19.6418
-38.4069	411.635	19.7102
-38.399	411.644	19.7786
-38.3946	413.54	19.8469
-38.3897	417.087	19.9153
-38.3829	420.035	19.9836
-38.3817	407.993	20.0129

Data Header:			0.254_hd_dimension_typeiv_090_r0			Time:	21.1924	s	4/14/2019 12:42:46 AM
Data Acquisition:	Timed
Station Name:	ft40.cfg
Test File Name:	monotonic_0.2540_typeiv_hd_090_dimension.tst
Displacement	Force	Running Time
mm	N	s
-38.3793	408.629	20.0227
-38.3807	416.64	20.0325
-38.3786	418.609	20.0422
-38.3777	415.612	20.052
-38.3767	414.307	20.0618
-38.3765	411.545	20.0715
-38.3754	407.779	20.0813
-38.3751	412.587	20.0911
-38.375	415.072	20.10083
-38.3739	420.07	20.1106
-38.3727	416.636	20.1204
-38.3709	408.559	20.1301
-38.3707	409.46	20.1399
-38.3706	411.854	20.1497
-38.3693	414.37	20.1594
-38.36771	413.5701	20.1692
-38.367	412.58	20.179
-38.3666	411.321	20.1887
-38.3653	407.889	20.1985
-38.3649	409.2782	20.2083
-38.3644	409.737	20.218
-38.3639	413.9321	20.2278
-38.3617	414.059	20.2375
-38.3611	408.213	20.2473
-38.3611	406.819	20.25708
-38.3606	406.373	20.2668
-38.3606	407.858	20.2766
-38.3579	410.134	20.2864
-38.3568	409.956	20.2961
-38.3574	410.21	20.3059
-38.35622	406.989	20.3157
-38.3559	401.485	20.3254
-38.3551	394.323	20.3352
-38.35	-1.65235	20.345
-38.3499	-14.9569	20.3547
-38.34898	-43.5668	20.3645
-38.3492	-52.8054	20.3743
-38.3482	-46.1198	20.384
-38.3485	-40.4251	20.3938
-38.3487	-45.5423	20.4036
-38.3458	-41.459	20.41333
-38.3461	-42.2589	20.4231
-38.3456	-39.2522	20.4329
-38.3461	-44.0457	20.4426
-38.3431	-47.3124	20.4524
-38.3429	-45.4161	20.4622
-38.3425	-41.361	20.4719
-38.3423	-42.352	20.4817
-38.3414	-37.7119	20.4915
-38.3395	-43.2931	20.5012
-38.3401	-44.34766	20.511
-38.3383	-46.8143	20.5208
-38.3369	-46.9414	20.5305
-38.3374	-41.5507	20.5403
-38.3365	-39.7309	20.55
-38.3357	-40.14286	20.5598
-38.3339	-46.3115	20.56958
-38.3329	-50.1048	20.5793
-38.3331	-44.2718	20.5891
-38.3318	-43.1806	20.5989
-38.3313	-39.4908	20.6086
-38.33147	-41.1451	20.6184
-38.3295	-43.7821	20.6282
-38.3282	-45.1296	20.6379
-38.3287	-48.8337	20.6477
-38.327	-43.4063	20.6575
-38.3268	-39.6055	20.6672
-38.3254	-39.26659	20.677
-38.3251	-43.6911	20.6868
-38.3254	-48.0723	20.6965
-38.3238	-47.5176	20.7063
-38.3224	-42.146	20.7161
-38.3205	-42.2897	20.72583
-38.32085	-40.3862	20.7356
-38.3193	-39.1908	20.7454
-38.3204	-44.0066	20.7551
-38.318	-47.6727	20.7649
-38.3181	-46.1836	20.7747
-38.3161	-42.6263	20.7844
-38.3165	-38.2983	20.7942
-38.315	-39.8853	20.804
-38.3144	-45.3097	20.8137
-38.3134	-47.0307	20.8235
-38.3128	-44.881	20.8333
-38.3117	-41.4211	20.843
-38.3114	-42.6028	20.8528
-38.3107	-40.4906	20.8625
-38.309	-41.0163	20.8723
-38.3091	-45.9265	20.88208
-38.3084	-44.4898	20.8918
-38.3066	-47.1573	20.9016
-38.3061	-40.9778	20.9114
-38.3063	-38.7668	20.9211
-38.3048	-42.7535	20.9309
-38.304	-44.5924	20.9407
-38.303	-45.04171	20.9504
-38.3014	-44.8214	20.9602
-38.3015	-44.15205	20.97
-38.3014	-43.464	20.9797
-38.3007	-39.2194	20.9895
-38.2993	-42.60096	20.9993
-38.29834	-44.0919	21.009
-38.29734	-46.2106	21.0188
-38.2971	-47.0187	21.0286
-38.2951	-41.4333	21.03833
-38.2943	-42.7822	21.0481
-38.2939	-41.6463	21.0579
-38.2928	-43.5159	21.0676
-38.2937	-46.5508	21.0774
-38.2917	-46.3446	21.0872
-38.2915	-43.9755	21.0969
-38.2907	-41.6973	21.1067
-38.2883	-38.1737	21.1165
-38.2892	-42.9369	21.1262
-38.2871	-46.5119	21.136
-38.2863	-48.0651	21.1458
-38.2859	-43.2967	21.1555
-38.2853	-41.4077	21.1653
-38.2843	-39.2615	21.175
-38.2831	-41.1318	21.1848