File: data/processed_data_files/tensile/0.254_solid_uprint_typei_090_r(5).dat
MTS793|BTW|ENU|1|2|.|/|:|1|0|0|A

Data Header:			0.254_solid_uprint_typei_090_r0			Time:	20.0198	s	4/15/2019 2:58:44 PM
Data Acquisition:	Timed
Station Name:	ft40.cfg
Test File Name:	monotonic_0.2540_typei_solid_090_uprint.tst
Displacement	Force	Running Time
mm	N	s
9.98154	-186.716	0.0227051
9.98525	-186.54	0.0910645
9.99129	-178.05	0.159424
9.9962	-172.28	0.2277832
10.0019	-172.659	0.296143
10.0088	-167.7688	0.364502
10.0142	-158.216	0.432861
10.0187	-160.972	0.5012207
10.0254	-161.006	0.56958
10.0312	-157.451	0.637939
10.036	-157.5304	0.706299
10.0417	-155.195	0.7746582
10.04649	-147.959	0.843018
10.0523	-143.423	0.911377
10.05933	-140.86	0.979736
10.0646	-135.8192	1.0481
10.0701	-127.084	1.11646
10.0763	-125.597	1.18481
10.0823	-125.4641	1.25317
10.0869	-122.601	1.32153
10.0939	-122.821	1.38989
10.0995	-120.9	1.458252
10.1046	-116.022	1.52661
10.1105	-111.983	1.59497
10.1166	-109.856	1.66333
10.1209	-102.821	1.73169
10.1272	-94.6435	1.80005
10.1332	-90.7297	1.86841
10.1391	-91.0294	1.93677
10.144	-87.6535	2.005127
10.1494	-87.895	2.07349
10.1557	-84.9591	2.14185
10.1617	-83.0574	2.21021
10.167	-78.2076	2.27856
10.1729	-76.218	2.34692
10.1795	-67.7655	2.41528
10.1844	-60.0249	2.48364
10.1896	-55.4881	2.552002
10.1946	-52.1182	2.62036
10.2021	-50.0024	2.68872
10.2076	-50.0861	2.75708
10.2121	-46.75069	2.82544
10.2181	-45.4427	2.8938
10.2237	-43.6867	2.96216
10.2294	-40.6166	3.03052
10.2358	-33.2322	3.098877
10.2409	-26.4522	3.16724
10.2472	-22.4184	3.2356
10.2528	-17.1161	3.30396
10.2582	-14.5134	3.37231
10.2641	-11.68108	3.44067
10.2701	-8.81744	3.50903
10.2749	-7.98869	3.57739
10.2807	-9.92495	3.645752
10.2859	-6.981257	3.71411
10.2923	1.5522	3.78247
10.2986	8.1447	3.85083
10.3043	13.3942	3.91919
10.3097	21.2645	3.98755
10.3151	25.1372	4.05591
10.3208	28.1833	4.12427
10.3264	29.6846	4.192627
10.3314	32.2576	4.26099
10.3377	28.3096	4.32935
10.3447	32.4014	4.39771
10.3498	40.4363	4.46606
10.3557	45.3927	4.53442
10.36061	49.3401	4.60278
10.3671	58.3233	4.67114
10.3723	62.3207	4.739502
10.3779	65.1702	4.80786
10.3838	68.9609	4.87622
10.38919	71.8284	4.94458
10.3942	67.4219	5.01294
10.4005	69.4059	5.0813
10.4054	75.8699	5.14966
10.4117	79.0948	5.21802
10.4176	85.6792	5.286377
10.4229	93.1652	5.35474
10.4293	99.9633	5.4231
10.43423	103.572	5.49146
10.441	108.082	5.55981
10.446	109.892	5.62817
10.4516	108.523	5.69653
10.4578	107.6029	5.76489
10.4639	114.124	5.833252
10.4687	117.978	5.90161
10.4746	120.446	5.96997
10.4815	128.71	6.03833
10.4857	135.935	6.10669
10.4912	142.361	6.17505
10.49739	146.691	6.24341
10.5031	147.1563	6.31177
10.5084	147.08	6.380127
10.514	148.985	6.44849
10.521	152.922	6.51685
10.5248	154.857	6.58521
10.5308	159.655	6.65356
10.5377	165.455	6.72192
10.5428	171.255	6.79028
10.5482	179.863	6.85864
10.55456	183.559	6.927002
10.5593	186.64	6.99536
10.5655	185.253	7.06372
10.57133	190.425	7.13208
10.5786	191.591	7.20044
10.5829	193.313	7.2688
10.5871	195.753	7.33716
10.5942	200.784	7.40552
10.6009	206.715	7.473877
10.6064	215.665	7.54224
10.6111	220.306	7.6106
10.6169	222.366	7.67896
10.6226	225.429	7.74731
10.6282	228.886	7.81567
10.633	229.475	7.88403
10.6407	229.415	7.95239
10.6456	233.685	8.020752
10.6502	234.8685	8.08911
10.6575	240.885	8.15747
10.6628	251.06	8.22583
10.6683	256.772	8.29419
10.6723	258.315	8.36255
10.6788	262.775	8.43091
10.6855	269.022	8.49927
10.6906	267.442	8.567627
10.6967	268.5152	8.63599
10.7022	270.874	8.70435
10.7082	274.5	8.77271
10.714	277.925	8.84106
10.7191	284.711	8.90942
10.7251	291.489	8.97778
10.7311	293.953	9.04614
10.73589	298.5983	9.114502
10.7421	308.2742	9.18286
10.7485	309.161	9.25122
10.754	305.84	9.31958
10.7584	310.88	9.38794
10.7638	311.083	9.4563
10.7704	314.827	9.52466
10.7768	321.106	9.59302
10.7811	325.817	9.661377
10.7879	329.115	9.72974
10.7928	336.029	9.7981
10.7985	346.349	9.86646
10.8041	346.099	9.93481
10.81037	346.367	10.0032
10.8161	349.318	10.0715
10.8221	348.304	10.1399
10.8281	351.816	10.2083
10.8326	355.291	10.2766
10.8387	360.3757	10.345
10.8443	364.838	10.41333
10.8503	371.745	10.4817
10.85663	381.239	10.55
10.8614	383.216	10.6184
10.8683	384.14	10.6868
10.8729	387.0889	10.7551
10.8788	387.86	10.8235
10.8848	388.314	10.8918
10.8906	390.29	10.9602
10.8954	394.398	11.0286
10.901	398.326	11.0969
10.9078	405.365	11.1653
10.9137	414.47	11.2336
10.9183	417.952	11.302
10.9244	420.669	11.3704
10.9306	423.998	11.4387
10.9365	424.9581	11.50708
10.9415	425.996	11.5754
10.94789	425.934	11.6438
10.9527	427.727	11.7122
10.9581	432.158	11.7805
10.9641	441.115	11.8489
10.9701	446.656	11.9172
10.97482	452.252	11.9856
10.9821	458.281	12.054
10.988	458.765	12.1223
10.9923	461.4707	12.1907
10.9984	464.989	12.259
11.0033	462.199	12.3274
11.0103	461.877	12.3958
11.0155	466.341	12.4641
11.0205	475.858	12.5325
11.02742	477.078	12.60083
11.0328	485.946	12.6692
11.0394	493.1886	12.7375
11.0447	495.542	12.8059
11.0499	497.422	12.8743
11.0558	501.285	12.9426
11.06163	498.158	13.011
11.0672	494.5625	13.0793
11.0724	500.729	13.1477
11.0782	507.137	13.2161
11.0837	509.655	13.2844
11.09	516.966	13.3528
11.0942	526.969	13.4211
11.1008	527.539	13.4895
11.1065	533.557	13.5579
11.1133	536.832	13.6262
11.1176	535.497	13.69458
11.124	532.231	13.7629
11.1307	537.504	13.8313
11.13648	541.528	13.8997
11.1408	543.745	13.968
11.1469	548.859	14.0364
11.1522	557.639	14.1047
11.1568	562.5	14.1731
11.1636	566.529	14.2415
11.1691	572.139	14.3098
11.1746	570.266	14.3782
11.1799	568.992	14.4465
11.1871	572.63	14.5149
11.1921	572.7868	14.5833
11.1982	574.822	14.6516
11.2037	580.437	14.72
11.21	588.022	14.78833
11.2154	593.156	14.8567
11.2205	599.2887	14.925
11.2262	605.186	14.9934
11.232	603.146	15.0618
11.2367	604.293	15.1301
11.2424	607.083	15.1985
11.2498	607.487	15.2668
11.2551	607.295	15.3352
11.2602	612.8786	15.4036
11.2654	617.878	15.4719
11.2727	626.975	15.5403
11.2767	632.719	15.6086
11.2832	635.842	15.677
11.2885	636.826	15.7454
11.294	639.431	15.8137
11.3007	642.086	15.88208
11.3062	640.458	15.9504
11.3114	641.085	16.0188
11.318	645.4422	16.0872
11.3227	648.1145	16.1555
11.3293	656.23	16.2239
11.3342	662.243	16.2922
11.34	666.331	16.3606
11.3456	670.421	16.429
11.352	673.944	16.4973
11.3575	674.576	16.5657
11.3627	673.511	16.634
11.3683	674.714	16.7024
11.3748	676.866	16.7708
11.3806	679.068	16.8391
11.3864	685.621	16.9075
11.3922	692.67	16.97583
11.3965	695.12	17.0442
11.4023	699.673	17.1125
11.4083	708.539	17.1809
11.4149	707.62	17.2493
11.4202	705.661	17.3176
11.425	708.923	17.386
11.4314	707.697	17.4543
11.4363	708.506	17.5227
11.4426	716.097	17.5911
11.4481	721.025	17.6594
11.454	721.716	17.7278
11.4601	729.061	17.7961
11.4653	736.98	17.8645
11.4708	737.734	17.9329
11.4771	737.04	18.0012
11.4811	740.723	18.06958
11.4887	739.755	18.1379
11.4939	739.717	18.2063
11.49844	743.208	18.2747
11.505	749.474	18.343
11.512	749.175	18.4114
11.5168	755.548	18.4797
11.5228	765.555	18.5481
11.529	768.757	18.6165
11.5337	768.024	18.6848
11.54	770.919	18.7532
11.54521	770.2179	18.8215
11.5509	769.43	18.8899
11.5566	772.879	18.9583
11.5625	774.862	19.0266
11.56745	775.324	19.095
11.5737	781.932	19.16333
11.5793	792.653	19.2317
11.5849	794.848	19.3
11.5906	798.683	19.3684
11.59663	800.903	19.4368
11.6033	799.347	19.5051
11.6076	799.823	19.5735
11.6133	800.239	19.6418
11.6189	802.369	19.7102
11.6246	803.7489	19.7786
11.6302	809.384	19.8469
11.6361	816.643	19.9153
11.6412	818.062	19.9836
11.6446	815.455	20.0129

Data Header:			0.254_solid_uprint_typei_090_r0			Time:	34.1648	s	4/15/2019 2:58:58 PM
Data Acquisition:	Timed
Station Name:	ft40.cfg
Test File Name:	monotonic_0.2540_typei_solid_090_uprint.tst
Displacement	Force	Running Time
mm	N	s
11.6444	814.732	20.0227
11.6494	819.525	20.0715
11.6519	827.964	20.1204
11.657	826.9	20.1692
11.6614	822.735	20.218
11.665	823.888	20.2668
11.6696	834.36	20.3157
11.6727	838.973	20.3645
11.6777	834.145	20.41333
11.6813	827.722	20.4622
11.6866	834.028	20.511
11.6896	844.398	20.5598
11.6936	845.312	20.6086
11.6985	840.456	20.6575
11.7018	839.764	20.7063
11.7056	845.675	20.7551
11.7107	853.453	20.804
11.7142	850.13	20.8528
11.719	846.426	20.9016
11.7221	849.315	20.9504
11.727	857.973	20.9993
11.7301	862.753	21.0481
11.7351	857.772	21.0969
11.7385	853.092	21.1458
11.743	860.171	21.19458
11.7471	869.973	21.2434
11.7505	868.656	21.2922
11.7558	863.3587	21.3411
11.75842	863.403	21.3899
11.763	872.094	21.4387
11.7669	874.971	21.4875
11.772	870.803	21.5364
11.7764	867.242	21.5852
11.7793	875.642	21.634
11.7824	881.899	21.6829
11.7875	883.074	21.7317
11.7912	878.402	21.7805
11.7958	877.621	21.8293
11.8006	883.17	21.8782
11.8041	887.718	21.927
11.8073	886.144	21.97583
11.8124	883.836	22.0247
11.817	887.887	22.0735
11.8206	893.811	22.1223
11.8246	893.79	22.1711
11.8281	891.053	22.22
11.8334	890.134	22.2688
11.8359	896.9458	22.3176
11.8406	900.938	22.3665
11.8442	899.255	22.4153
11.8488	896.742	22.4641
11.8519	897.522	22.5129
11.8568	904.874	22.5618
11.8602	905.182	22.6106
11.8645	902.6543	22.6594
11.86836	903.904	22.7083
11.87282	908.904	22.75708
11.877	915.031	22.8059
11.8812	911.589	22.8547
11.8842	904.984	22.9036
11.8891	908.738	22.9524
11.8923	914.909	23.0012
11.8971	918.017	23.05
11.9013	913.373	23.0989
11.9057	912.088	23.1477
11.9093	917.291	23.1965
11.9135	921.6095	23.2454
11.9176	920.331	23.2942
11.922	916.247	23.343
11.9269	919.909	23.3918
11.9296	928.686	23.4407
11.9333	930.963	23.4895
11.9374	924.078	23.53833
11.9428	919.994	23.5872
11.9472	924.163	23.636
11.9508	931.5495	23.6848
11.9548	928.996	23.7336
11.9593	923.633	23.7825
11.9613	925.393	23.8313
11.9661	932.715	23.8801
11.9706	935.443	23.929
11.9737	930.022	23.9778
11.9779	928.218	24.0266
11.9832	931.661	24.0754
11.9866	941.638	24.1243
11.9903	941.253	24.1731
11.9956	934.6308	24.2219
11.998	930.5191	24.2708
12.0026	938.4762	24.31958
12.0075	943.389	24.3684
12.0113	938.763	24.4172
12.0155	932.6546	24.4661
12.0196	936.735	24.5149
12.023	944.763	24.5637
12.02675	943.889	24.6125
12.032	936.494	24.6614
12.03595	933.42	24.7102
12.0392	941.108	24.759
12.0434	950.558	24.8079
12.0474	948.326	24.8567
12.0517	940.513	24.9055
12.0562	939.071	24.9543
12.0598	947.667	25.0032
12.0636	949.074	25.052
12.0682	944.2854	25.10083
12.0725	937.5069	25.1497
12.0756	941.9823	25.1985
12.0801	951.039	25.2473
12.0842	949.118	25.2961
12.0888	938.812	25.345
12.0923	937.652	25.3938
12.0961	947.603	25.4426
12.1001	953.829	25.4915
12.1043	949.991	25.5403
12.1081	944.98	25.5891
12.1132	944.656	25.6379
12.1181	951.3056	25.6868
12.1212	951.331	25.7356
12.1251	944.9552	25.7844
12.12892	941.072	25.8333
12.13277	945.682	25.88208
12.1378	951.925	25.9309
12.1411	949.241	25.9797
12.1456	940.641	26.0286
12.1498	940.899	26.0774
12.1531	949.218	26.1262
12.1575	955.366	26.175
12.162	949.27	26.2239
12.166	943.512	26.2727
12.17	948.6543	26.3215
12.1735	953.486	26.3704
12.1769	951.188	26.4192
12.1809	943.5481	26.468
12.1858	941.518	26.5168
12.1904	949.072	26.5657
12.1938	950.903	26.6145
12.1979	944.924	26.66333
12.2012	939.475	26.7122
12.2059	941.161	26.761
12.2106	947.7215	26.8098
12.2154	949.589	26.8586
12.2186	943.702	26.9075
12.2231	941.591	26.9563
12.227	948.604	27.0051
12.2305	950.512	27.054
12.2342	945.7981	27.1028
12.239	941.553	27.1516
12.2433	942.284	27.2004
12.2475	948.2569	27.2493
12.2505	948.265	27.2981
12.255	941.297	27.3469
12.2593	939.2	27.3958
12.2631	940.734	27.44458
12.2674	943.594	27.4934
12.2716	942.7796	27.5422
12.2754	939.048	27.5911
12.2799	939.831	27.6399
12.2841	947.997	27.6887
12.2876	946.427	27.7375
12.2927	940.724	27.7864
12.2954	937.176	27.8352
12.2995	940.714	27.884
12.30479	946.25	27.9329
12.3077	942.7	27.9817
12.3122	937.671	28.0305
12.317	937.346	28.0793
12.3208	940.605	28.1282
12.3237	942.423	28.177
12.3278	936.453	28.22583
12.3324	934.197	28.2747
12.3363	937.909	28.3235
12.3404	946.431	28.3723
12.3444	942.994	28.4211
12.3489	933.662	28.47
12.35283	934.008	28.5188
12.3564	941.375	28.5676
12.3605	942.196	28.6165
12.3651	936.936	28.6653
12.3685	931.899	28.7141
12.3733	935.335	28.7629
12.3764	940.07	28.8118
12.38052	937.076	28.8606
12.3849	931.503	28.9094
12.389	930.301	28.9583
12.3929	937.486	29.00708
12.3978	942.234	29.0559
12.40201	937.0061	29.1047
12.406	930.636	29.1536
12.4107	931.329	29.2024
12.4145	938.737	29.2512
12.4172	939.59	29.3
12.422	932.104	29.3489
12.4268	928.308	29.3977
12.431	933.274	29.4465
12.4347	937.16	29.4954
12.439	933.326	29.5442
12.4414	925.429	29.593
12.4474	926.169	29.6418
12.4504	935.407	29.6907
12.4542	937.777	29.7395
12.4581	932.369	29.78833
12.4629	926.556	29.8372
12.4669	928.059	29.886
12.4699	938.308	29.9348
12.4761	934.715	29.9836
12.4797	926.3681	30.0325
12.4833	924.7395	30.0813
12.4864	931.1817	30.1301
12.49022	937.339	30.179
12.4953	928.126	30.2278
12.4989	920.649	30.2766
12.5035	924.217	30.3254
12.5079	933.682	30.3743
12.5116	933.444	30.4231
12.51513	926.498	30.4719
12.5209	923.253	30.5208
12.5243	928.199	30.56958
12.5288	932.039	30.6184
12.5316	930.175	30.6672
12.5365	921.124	30.7161
12.5395	921.177	30.7649
12.5449	928.357	30.8137
12.5479	931.415	30.8625
12.5531	921.362	30.9114
12.55651	916.377	30.9602
12.5603	921.8717	31.009
12.5637	928.635	31.0579
12.5691	927.579	31.1067
12.5733	918.6554	31.1555
12.5763	918.368	31.2043
12.58077	924.749	31.2532
12.5854	927.803	31.302
12.5891	923.026	31.35083
12.5926	917.058	31.3997
12.59721	919.904	31.4485
12.6011	926.692	31.4973
12.6056	926.3457	31.5461
12.60907	917.972	31.595
12.6138	913.833	31.6438
12.6173	917.982	31.6926
12.621	922.021	31.7415
12.6259	917.535	31.7903
12.6291	912.858	31.8391
12.6349	912.197	31.8879
12.6431	-47.2893	31.9368
12.6431	-41.5156	31.9856
12.6479	-42.4976	32.0344
12.6502	-45.6619	32.0833
12.6551	-41.0488	32.13208
12.6591	-34.6542	32.1809
12.6631	-38.2448	32.2297
12.6668	-45.6271	32.2786
12.6706	-44.5726	32.3274
12.6745	-41.8101	32.3762
12.6787	-37.5715	32.425
12.6828	-41.9221	32.4739
12.6864	-45.2381	32.5227
12.6911	-41.0794	32.5715
12.6952	-35.741	32.6204
12.6993	-39.1514	32.6692
12.70301	-45.8299	32.718
12.7069	-45.3759	32.7668
12.7116	-39.8121	32.8157
12.7152	-36.3377	32.8645
12.7195	-40.1236	32.91333
12.7233	-45.0917	32.9622
12.7273	-42.2421	33.011
12.7322	-37.599	33.0598
12.7362	-40.2897	33.1086
12.74	-44.2092	33.1575
12.74436	-44.0672	33.2063
12.748	-39.34584	33.2551
12.7516	-37.0619	33.304
12.7562	-42.5129	33.3528
12.7609	-46.8736	33.4016
12.7642	-43.8419	33.4504
12.769	-37.4414	33.4993
12.772	-39.2965	33.5481
12.77626	-41.3986	33.5969
12.7805	-43.7385	33.6458
12.7846	-38.5868	33.69458
12.7887	-36.6771	33.7434
12.7915	-40.9998	33.7922
12.7966	-46.5968	33.8411
12.8007	-43.484	33.8899
12.8052	-36.5406	33.9387
12.8097	-36.2808	33.9875
12.8137	-42.1175	34.0364
12.817	-48.1152	34.0852
12.8218	-41.8857	34.134
12.8223	-44.2522	34.1536