File: data/processed_data_files/tensile/0.254_solid_uprint_typeiv_4545_r(5).dat
MTS793|BTW|ENU|1|2|.|/|:|1|0|0|A

Data Header:			0.254_solid_uprint_typeiv_4545_r0			Time:	20.0239	s	4/13/2019 6:56:31 PM
Data Acquisition:	Timed
Station Name:	ft40.cfg
Test File Name:	Type IV_Monotonic.tst
Displacement	Force	Running Time
mm	N	s
-40.0444	91.5717	0.0285645
-40.0434	92.2	0.0969238
-40.0377	95.3715	0.1652832
-40.0338	100.873	0.233643
-40.0271	109.161	0.302002
-40.02055	111.04	0.370361
-40.0144	111.849	0.4387207
-40.00988	116.159	0.50708
-40.0035	121.4965	0.575439
-39.9987	121.79	0.643799
-39.993	122.8318	0.7121582
-39.9876	128.299	0.780518
-39.9822	129.552	0.848877
-39.9758	135.866	0.917236
-39.9713	142.51	0.9855957
-39.9652	145.003	1.05396
-39.9588	146.599	1.12231
-39.954	151.913	1.19067
-39.9483	156.365	1.25903
-39.9423	157.832	1.32739
-39.9356	158.971	1.395752
-39.9301	163.287	1.46411
-39.9239	165.711	1.53247
-39.9187	170.05	1.60083
-39.9145	177.171	1.66919
-39.9074	179.063	1.73755
-39.9015	180.298	1.80591
-39.8966	186.785	1.87427
-39.891	193.115	1.942627
-39.8845	194.501	2.01099
-39.8793	195.887	2.07935
-39.87426	197.544	2.14771
-39.8683	199.749	2.21606
-39.8628	203.332	2.28442
-39.8563	209.078	2.35278
-39.8501	213.4	2.42114
-39.8457	214.903	2.489502
-39.83894	221.557	2.55786
-39.8337	226.877	2.62622
-39.8277	228.863	2.69458
-39.8216	229.682	2.76294
-39.8165	231.523	2.8313
-39.8105	233.693	2.89966
-39.8052	237.469	2.96802
-39.8003	241.602	3.036377
-39.79369	242.9509	3.10474
-39.7875	248.262	3.1731
-39.7824	253.724	3.24146
-39.7762	260.0311	3.30981
-39.7707	262.582	3.37817
-39.7649	264.4353	3.44653
-39.7601	267.354	3.51489
-39.7538	266.773	3.583252
-39.7493	272.099	3.65161
-39.7427	276.34	3.71997
-39.7379	275.966	3.78833
-39.7306	278.666	3.85669
-39.7254	286.083	3.92505
-39.7197	292.614	3.99341
-39.7143	294.703	4.06177
-39.7082	297.693	4.130127
-39.70393	300.696	4.19849
-39.6974	298.249	4.26685
-39.69001	301.161	4.33521
-39.6853	305.759	4.40356
-39.6797	305.414	4.47192
-39.6735	309.459	4.54028
-39.6692	316.402	4.60864
-39.6636	322.627	4.677002
-39.6566	324.837	4.74536
-39.6513	329.823	4.81372
-39.6462	331.863	4.88208
-39.6395	330.987	4.95044
-39.6356	333.2981	5.0188
-39.6291	335.814	5.08716
-39.6238	336.883	5.15552
-39.6162	338.133	5.223877
-39.6117	343.83	5.29224
-39.6052	352.285	5.3606
-39.5999	355.044	5.42896
-39.594	359.797	5.49731
-39.5888	362.265	5.56567
-39.5827	362.623	5.63403
-39.5782	364.564	5.70239
-39.5721	366.471	5.770752
-39.56654	364.379	5.83911
-39.5607	366.791	5.90747
-39.5542	372.122	5.97583
-39.5501	378.538	6.04419
-39.5441	382.269	6.11255
-39.53751	387.951	6.18091
-39.5313	390.991	6.24927
-39.5266	393.1138	6.317627
-39.5201	393.307	6.38599
-39.5141	396.727	6.45435
-39.5092	392.784	6.52271
-39.5047	395.841	6.59106
-39.4981	401.622	6.65942
-39.4919	405.246	6.72778
-39.4863	408.8591	6.79614
-39.4792	415.0394	6.864502
-39.475	416.487	6.93286
-39.4697	419.163	7.00122
-39.46352	422.057	7.06958
-39.4583	423.408	7.13794
-39.4527	421.1474	7.2063
-39.4465	420.967	7.27466
-39.4408	427.615	7.34302
-39.4359	430.832	7.411377
-39.4289	432.313	7.47974
-39.4238	439.909	7.5481
-39.4163	443.207	7.61646
-39.4125	444.759	7.68481
-39.406	447.388	7.75317
-39.4004	447.692	7.82153
-39.3942	445.8	7.88989
-39.3896	445.861	7.958252
-39.3828	452.715	8.02661
-39.3777	453.363	8.09497
-39.3718	456.003	8.16333
-39.367	462.185	8.23169
-39.3606	464.275	8.30005
-39.3553	468.042	8.36841
-39.3492	471.361	8.43677
-39.3436	473.6369	8.505127
-39.3384	469.617	8.57349
-39.3321	471.063	8.64185
-39.3261	475.176	8.71021
-39.32127	475.711	8.77856
-39.3155	474.215	8.84692
-39.31081	481.737	8.91528
-39.3049	484.814	8.98364
-39.2985	489.128	9.052002
-39.292	490.976	9.12036
-39.2863	492.9187	9.18872
-39.2796	492.136	9.25708
-39.2758	490.876	9.32544
-39.2699	495.063	9.3938
-39.2636	494.554	9.46216
-39.2581	494.642	9.53052
-39.2536	498.869	9.598877
-39.2479	501.1539	9.66724
-39.24054	505.628	9.7356
-39.2355	508.29	9.80396
-39.2308	509.367	9.87231
-39.22345	509.245	9.94067
-39.21909	508.3555	10.009
-39.2132	512.036	10.0774
-39.2071	510.2746	10.1458
-39.202	510.052	10.2141
-39.1962	514.086	10.2825
-39.1907	514.602	10.35083
-39.1847	517.567	10.4192
-39.1779	522.0155	10.4875
-39.1733	522.78	10.5559
-39.1679	520.818	10.6243
-39.1619	524.486	10.6926
-39.1558	525.888	10.761
-39.1502	524.317	10.8293
-39.1433	523.404	10.8977
-39.139	525.981	10.9661
-39.1336	523.452	11.0344
-39.1272	528.402	11.1028
-39.1213	531.328	11.1711
-39.1155	531.286	11.2395
-39.1111	530.44	11.3079
-39.1059	532.4386	11.3762
-39.0986	535.223	11.44458
-39.0935	532.856	11.5129
-39.0875	532.543	11.5813
-39.0819	531.3205	11.6497
-39.076	531.6828	11.718
-39.0692	531.071	11.7864
-39.06485	536.23	11.8547
-39.0584	536.516	11.9231
-39.0531	533.548	11.9915
-39.048	538.157	12.0598
-39.0418	540.505	12.1282
-39.0361	537.533	12.1965
-39.03	535.3844	12.2649
-39.0252	535.8183	12.3333
-39.0193	534.523	12.4016
-39.0135	534.6499	12.47
-39.0081	536.967	12.53833
-39.0027	536.283	12.6067
-38.9971	536.245	12.675
-38.9909	540.896	12.7434
-38.9854	542.777	12.8118
-38.9794	539.912	12.8801
-38.9744	539.505	12.9485
-38.96767	539.615	13.0168
-38.9626	535.708	13.0852
-38.9573	536	13.1536
-38.9508	535.851	13.2219
-38.9461	535.146	13.2903
-38.9398	536.099	13.3586
-38.9339	540.823	13.427
-38.92815	542.668	13.4954
-38.92149	542.071	13.5637
-38.916	541.086	13.63208
-38.9113	537.703	13.7004
-38.9042	537.8241	13.7688
-38.8999	535.366	13.8372
-38.8946	532.94	13.9055
-38.8877	532.308	13.9739
-38.8821	532.919	14.0422
-38.8773	538.51	14.1106
-38.8709	538.715	14.179
-38.8656	538.766	14.2473
-38.86031	540.75	14.3157
-38.8549	538.116	14.384
-38.8482	536.263	14.4524
-38.843	535.719	14.5208
-38.8373	532.46	14.5891
-38.8321	529.567	14.6575
-38.8258	532.313	14.72583
-38.8199	534.694	14.7942
-38.8144	534.877	14.8625
-38.8095	537.044	14.9309
-38.803	538.374	14.9993
-38.7964	536.684	15.0676
-38.7907	536.55	15.136
-38.7862	534.073	15.2043
-38.7802	529.59	15.2727
-38.7743	526.814	15.3411
-38.7686	529.777	15.4094
-38.7633	533.52	15.4778
-38.75695	533.103	15.5461
-38.752	535.669	15.6145
-38.7459	538.828	15.6829
-38.7403	535.252	15.7512
-38.7341	535.72	15.81958
-38.7291	535.497	15.8879
-38.7231	528.184	15.9563
-38.7169	526.324	16.0247
-38.711	528.557	16.093
-38.7061	531.535	16.1614
-38.7003	530.595	16.2297
-38.6937	531.963	16.2981
-38.6903	534.289	16.3665
-38.6835	533.879	16.4348
-38.6781	533.686	16.5032
-38.6704	534.17	16.5715
-38.6671	527.92	16.6399
-38.6608	524.9541	16.7083
-38.6544	527.315	16.7766
-38.64922	528.654	16.845
-38.64362	527.642	16.91333
-38.6378	531.291	16.9817
-38.6312	532.9433	17.05
-38.6259	533.686	17.1184
-38.6216	533.61	17.1868
-38.6147	532.997	17.2551
-38.6102	526.72	17.3235
-38.6038	524.42	17.3918
-38.5965	526.993	17.4602
-38.59103	526.795	17.5286
-38.5869	526.046	17.5969
-38.5807	528.343	17.6653
-38.574	530.218	17.7336
-38.5688	530.696	17.802
-38.5647	532.289	17.8704
-38.5568	531.39	17.9387
-38.55241	526.984	18.00708
-38.54631	527.7298	18.0754
-38.5413	527.128	18.1438
-38.53381	524.9668	18.2122
-38.5295	524.625	18.2805
-38.5231	526.3736	18.3489
-38.5175	525.76	18.4172
-38.5134	528.184	18.4856
-38.5072	530.423	18.554
-38.5011	529.412	18.6223
-38.4952	525.435	18.6907
-38.4894	526.962	18.759
-38.4842	527.613	18.8274
-38.47773	523.65	18.8958
-38.4726	523.667	18.9641
-38.4659	525.907	19.0325
-38.4616	523.068	19.10083
-38.455	526.052	19.1692
-38.4497	529.626	19.2375
-38.4442	527.122	19.3059
-38.4382	525.997	19.3743
-38.4324	526.645	19.4426
-38.4264	529.377	19.511
-38.4204	523.938	19.5793
-38.4157	524.922	19.6477
-38.4091	523.317	19.7161
-38.4047	523.022	19.7844
-38.3985	524.43	19.8528
-38.3934	526.437	19.9211
-38.3861	525.976	19.9895
-38.3842	523.775	20.0188

Data Header:			0.254_solid_uprint_typeiv_4545_r0			Time:	36.6924	s	4/13/2019 6:56:47 PM
Data Acquisition:	Timed
Station Name:	ft40.cfg
Test File Name:	Type IV_Monotonic.tst
Displacement	Force	Running Time
mm	N	s
-38.38332	522.424	20.0286
-38.3777	523.98	20.0872
-38.3734	524.847	20.1458
-38.36985	525.813	20.2043
-38.3645	524.093	20.2629
-38.3591	527.822	20.3215
-38.3535	526.218	20.3801
-38.3502	527.706	20.4387
-38.3458	528.095	20.4973
-38.3398	523.975	20.5559
-38.3342	526.556	20.6145
-38.3305	524.0448	20.6731
-38.32431	526.095	20.7317
-38.3213	521.105	20.7903
-38.3152	523.1203	20.8489
-38.312	517.517	20.9075
-38.3063	521.887	20.9661
-38.3012	518.706	21.0247
-38.2944	524.563	21.0833
-38.2912	520.56	21.1418
-38.2863	526.457	21.2004
-38.2811	523.66	21.259
-38.2759	527.757	21.3176
-38.2707	528.474	21.3762
-38.2669	528.355	21.4348
-38.2623	527.34	21.4934
-38.2574	527.078	21.552
-38.2527	526.1	21.6106
-38.2475	523.421	21.6692
-38.2412	523.778	21.7278
-38.2381	522.311	21.7864
-38.2317	519.873	21.845
-38.2277	520.759	21.9036
-38.2238	520.967	21.9622
-38.2176	522.66	22.0208
-38.2134	522.785	22.0793
-38.2077	524.4165	22.1379
-38.2037	523.913	22.1965
-38.1981	525.665	22.2551
-38.193	527.301	22.3137
-38.1884	526.506	22.3723
-38.1841	526.5863	22.4309
-38.1785	522.323	22.4895
-38.1734	524.6	22.5481
-38.169	518.994	22.6067
-38.1637	521.83	22.6653
-38.1591	515.077	22.7239
-38.153	518.744	22.7825
-38.1494	515.194	22.8411
-38.1447	520.197	22.8997
-38.1394	517.203	22.9583
-38.1352	522.114	23.0168
-38.1298	519.356	23.0754
-38.1239	523.466	23.134
-38.1201	524.941	23.1926
-38.1145	524.796	23.2512
-38.1111	526.405	23.3098
-38.1062	525.803	23.3684
-38.1011	524.869	23.427
-38.0957	522.577	23.4856
-38.0903	523.3811	23.5442
-38.0863	519.616	23.6028
-38.0806	518.015	23.6614
-38.07745	519.301	23.72
-38.071	517.728	23.7786
-38.0662	518.824	23.8372
-38.0606	518.427	23.8958
-38.0558	521.367	23.9543
-38.0521	520.7276	24.0129
-38.0477	522.834	24.0715
-38.0421	524.088	24.1301
-38.0374	523.051	24.1887
-38.0326	524.17	24.2473
-38.0279	520.4809	24.3059
-38.022	523.0636	24.3645
-38.01759	518.567	24.4231
-38.01387	520.8299	24.4817
-38.0077	514.618	24.5403
-38.0027	519.514	24.5989
-37.9977	514.623	24.6575
-37.9925	517.848	24.7161
-37.9885	514.597	24.7747
-37.9826	518.4397	24.8333
-37.9789	515.446	24.8918
-37.973	518.352	24.9504
-37.9699	520.5733	25.009
-37.9639	521.4342	25.0676
-37.9592	523.051	25.1262
-37.95351	522.396	25.1848
-37.9498	521.493	25.2434
-37.9443	521.569	25.302
-37.9395	521.521	25.3606
-37.935	519.947	25.4192
-37.9299	518.094	25.4778
-37.9245	517.256	25.5364
-37.9202	516.2663	25.595
-37.9143	515.776	25.6536
-37.9101	516.32	25.7122
-37.90287	517.44	25.7708
-37.9002	516.216	25.8293
-37.8956	519.884	25.8879
-37.89082	519.475	25.9465
-37.8861	519.675	26.0051
-37.881	522.2359	26.0637
-37.8774	518.829	26.1223
-37.8708	521.733	26.1809
-37.8675	518.322	26.2395
-37.8611	519.246	26.2981
-37.8579	514.276	26.3567
-37.8525	518.002	26.4153
-37.8464	512.445	26.4739
-37.8425	515.684	26.5325
-37.83749	511.389	26.5911
-37.832	515.828	26.6497
-37.8271	512.168	26.7083
-37.8222	516.389	26.7668
-37.818	518.06	26.8254
-37.8117	518.12	26.884
-37.8076	520.085	26.9426
-37.8034	521.639	27.0012
-37.7985	522.242	27.0598
-37.7931	520.935	27.1184
-37.7887	521.681	27.177
-37.7838	519.548	27.2356
-37.77869	518.327	27.2942
-37.7727	517.436	27.3528
-37.7686	515.394	27.4114
-37.764	514.676	27.47
-37.7588	513.774	27.5286
-37.7553	516.128	27.5872
-37.7494	514.326	27.6458
-37.74474	516.3454	27.7043
-37.7383	515.69	27.7629
-37.734	516.363	27.8215
-37.7298	518.3866	27.8801
-37.7251	517.441	27.9387
-37.7185	518.313	27.9973
-37.7151	516.9776	28.0559
-37.7094	518.419	28.1145
-37.7055	512.711	28.1731
-37.6997	516.764	28.2317
-37.6955	510.852	28.2903
-37.6906	514.412	28.3489
-37.6865	510.104	28.4075
-37.6814	511.234	28.4661
-37.6754	509.693	28.5247
-37.6703	513.439	28.5833
-37.6655	513.158	28.6418
-37.6626	516.037	28.7004
-37.6558	516.03	28.759
-37.65123	517.684	28.8176
-37.6464	518.66	28.8762
-37.6416	519.829	28.9348
-37.6355	519.883	28.9934
-37.6317	517.165	29.052
-37.6261	516.076	29.1106
-37.6222	515.079	29.1692
-37.6174	512.44	29.2278
-37.612	513.177	29.2864
-37.6069	510.821	29.345
-37.6022	512.942	29.4036
-37.5976	511.304	29.4622
-37.5929	513.015	29.5208
-37.5876	513.039	29.5793
-37.5817	513.413	29.6379
-37.5782	516.6098	29.6965
-37.5734	515.417	29.7551
-37.5693	518.2785	29.8137
-37.5628	515.857	29.8723
-37.5593	517.869	29.9309
-37.5547	512.095	29.9895
-37.5491	515.742	30.0481
-37.54369	510.293	30.1067
-37.5398	511.973	30.1653
-37.5341	507.851	30.2239
-37.5281	511.06	30.2825
-37.52491	507.718	30.3411
-37.5198	510.363	30.3997
-37.5154	511.008	30.4583
-37.5092	511.163	30.5168
-37.5045	513.593	30.5754
-37.5001	514.806	30.634
-37.495	516.066	30.6926
-37.4905	516.228	30.7512
-37.4848	517.804	30.8098
-37.4798	515.595	30.8684
-37.4757	517.582	30.927
-37.4711	513.3869	30.9856
-37.4653	512.939	31.0442
-37.461	512.204	31.1028
-37.4564	509.847	31.1614
-37.4525	509.603	31.22
-37.4471	507.096	31.2786
-37.4413	510.059	31.3372
-37.4366	508.603	31.3958
-37.432	511.862	31.4543
-37.4262	512.353	31.5129
-37.4228	513.502	31.5715
-37.4165	514.778	31.6301
-37.4122	514.789	31.6887
-37.4079	514.872	31.7473
-37.402	510.794	31.8059
-37.3986	514.976	31.8645
-37.3919	510.18	31.9231
-37.3873	511.301	31.9817
-37.3835	506.943	32.0403
-37.37846	508.8324	32.0989
-37.3739	503.851	32.1575
-37.3683	507.19	32.2161
-37.3633	505.565	32.2747
-37.3582	507.967	32.3333
-37.3529	511.681	32.3918
-37.3497	511.072	32.4504
-37.345	512.391	32.509
-37.3384	515.302	32.5676
-37.3341	514.297	32.6262
-37.3273	512.235	32.6848
-37.324	515.168	32.7434
-37.3192	511.536	32.802
-37.3141	510.8996	32.8606
-37.3102	511.057	32.9192
-37.3053	508.484	32.9778
-37.2999	508.396	33.0364
-37.29467	506.698	33.095
-37.2895	506.811	33.1536
-37.2854	505.688	33.2122
-37.2799	507.6058	33.2708
-37.2752	506.3179	33.3293
-37.2714	508.618	33.3879
-37.2656	509.484	33.4465
-37.2608	509.68	33.5051
-37.2564	511.608	33.5637
-37.2509	509.419	33.6223
-37.2474	512.146	33.6809
-37.2417	505.891	33.7395
-37.2359	509.398	33.7981
-37.2317	503.679	33.8567
-37.2262	504.791	33.9153
-37.2221	502.152	33.9739
-37.2178	503.782	34.0325
-37.21172	500.44	34.0911
-37.2073	501.801	34.1497
-37.2019	502.384	34.2083
-37.1965	503.196	34.2668
-37.1923	504.46	34.3254
-37.187	506.65	34.384
-37.1829	509.04	34.4426
-37.17802	507.268	34.5012
-37.1736	508.026	34.5598
-37.169	505.538	34.6184
-37.1633	502.617	34.677
-37.1587	502.056	34.7356
-37.1533	500.049	34.7942
-37.1483	495.928	34.8528
-37.144	492.201	34.9114
-37.1391	487.61	34.97
-37.1315	-27.6863	35.0286
-37.1275	-43.0264	35.0872
-37.1225	-43.80024	35.1458
-37.1188	-42.4883	35.2043
-37.1135	-37.9363	35.2629
-37.1092	-40.9931	35.3215
-37.104	-37.3681	35.3801
-37.0993	-39.7863	35.4387
-37.095	-37.1073	35.4973
-37.0888	-42.0075	35.5559
-37.0842	-37.479	35.6145
-37.0801	-42.0969	35.6731
-37.0746	-40.8785	35.7317
-37.07016	-44.5927	35.7903
-37.0653	-42.6687	35.8489
-37.0604	-45.5295	35.9075
-37.0557	-43.6324	35.9661
-37.0515	-43.7099	36.0247
-37.0458	-43.8812	36.0833
-37.0405	-40.2795	36.1418
-37.0359	-39.3317	36.2004
-37.0309	-37.2308	36.259
-37.0269	-38.5582	36.3176
-37.0223	-34.9903	36.3762
-37.0155	-35.07132	36.4348
-37.012	-37.2615	36.4934
-37.0073	-36.0407	36.552
-37.0025	-40.0629	36.6106
-36.9971	-38.95546	36.6692
-36.9957	-37.2005	36.679