File: data/processed_data_files/tensile/0.254_hd_uprint_typeiv_090_r(1).dat
MTS793|BTW|ENU|1|2|.|/|:|1|0|0|A

Data Header:			0.254_hd_uprint_typeiv_090_r0			Time:	20.01709	s	4/13/2019 10:55:52 PM
Data Acquisition:	Timed
Station Name:	ft40.cfg
Test File Name:	monotonic_0.2540_typeiv_solid_4545_uprint.tst
Displacement	Force	Running Time
mm	N	s
-40.04253	-129.017	0.0219727
-40.04	-120.257	0.090332
-40.0358	-112.374	0.158691
-40.0291	-103.571	0.227051
-40.024	-101.575	0.29541
-40.0183	-101.404	0.36377
-40.0126	-105.31	0.432129
-40.0069	-109.31	0.500488
-40.0006	-113.907	0.568848
-39.9952	-113.074	0.637207
-39.98922	-101.068	0.705566
-39.9843	-93.9352	0.773926
-39.9789	-83.7095	0.842285
-39.9724	-72.8874	0.910645
-39.9671	-67.494	0.979004
-39.9608	-66.43	1.04736
-39.9555	-67.2064	1.11572
-39.9497	-72.3285	1.184082
-39.9439	-77.4102	1.25244
-39.9389	-78.7767	1.3208
-39.9332	-71.4106	1.38916
-39.9265	-65.4367	1.45752
-39.9221	-54.0732	1.52588
-39.9162	-43.4572	1.59424
-39.9094	-37.768	1.6626
-39.9053	-29.5207	1.730957
-39.89854	-30.6016	1.79932
-39.8925	-35.453	1.86768
-39.88773	-41.37059	1.93604
-39.8816	-41.3168	2.00439
-39.8766	-39.4973	2.07275
-39.8693	-36.5637	2.14111
-39.8643	-27.028	2.20947
-39.8573	-16.0087	2.277832
-39.8526	-7.77418	2.34619
-39.8475	2.16441	2.41455
-39.8411	6.4506	2.48291
-39.8362	0.294287	2.55127
-39.83	-3.335448	2.61963
-39.8248	-3.41172	2.68799
-39.818	-5.325201	2.75635
-39.8144	-5.2774	2.824707
-39.8071	2.9347	2.89307
-39.802	10.6156	2.96143
-39.7961	20.5765	3.02979
-39.7902	32.2202	3.09814
-39.7848	38.0363	3.1665
-39.778	35.33392	3.23486
-39.7733	33.1914	3.30322
-39.76754	33.7162	3.371582
-39.7638	29.1623	3.43994
-39.75576	28.4573	3.5083
-39.751	33.6004	3.57666
-39.7448	38.4227	3.64502
-39.7383	47.081	3.71338
-39.7328	60.8524	3.78174
-39.7281	70.1392	3.8501
-39.7234	69.3361	3.918457
-39.7148	71.0551	3.98682
-39.7109	73.8797	4.05518
-39.7056	65.40477	4.12354
-39.7	60.5227	4.19189
-39.6953	65.2423	4.26025
-39.6883	66.9621	4.32861
-39.6825	75.3316	4.39697
-39.6762	87.9461	4.465332
-39.6703	97.92	4.53369
-39.665	100.356	4.60205
-39.6603	105.692	4.67041
-39.654	109.31	4.73877
-39.6477	104.445	4.80713
-39.64238	98.8199	4.87549
-39.63702	99.2285	4.94385
-39.632	100.039	5.012207
-39.6244	104.161	5.08057
-39.6188	114.387	5.14893
-39.6136	124.843	5.21729
-39.6088	130.628	5.28564
-39.6019	136.3161	5.354
-39.5982	143.557	5.42236
-39.5914	138.9809	5.49072
-39.58569	135.367	5.559082
-39.5796	134.864	5.62744
-39.57539	132.716	5.6958
-39.5676	133.747	5.76416
-39.5633	141.737	5.83252
-39.5564	149.7473	5.90088
-39.5506	157.456	5.96924
-39.54517	167.869	6.0376
-39.5393	174.529	6.105957
-39.5343	173.745	6.17432
-39.5289	169.166	6.24268
-39.5231	169.274	6.31104
-39.517	165.686	6.37939
-39.5114	166.7641	6.44775
-39.5052	170.828	6.51611
-39.5008	174.677	6.58447
-39.4938	182.567	6.652832
-39.4881	194.343	6.72119
-39.4828	202.548	6.78955
-39.4769	206.65	6.85791
-39.472	205.343	6.92627
-39.4649	203.937	6.99463
-39.4594	200.078	7.06299
-39.4546	199.704	7.13135
-39.4494	197.679	7.199707
-39.4437	201.505	7.26807
-39.4367	207.976	7.33643
-39.4313	220.007	7.40479
-39.4264	228.972	7.47314
-39.4204	235.986	7.5415
-39.41386	237.1315	7.60986
-39.4085	237.129	7.67822
-39.4022	236.343	7.746582
-39.3979	233.168	7.81494
-39.3919	230.218	7.8833
-39.3864	229.998	7.95166
-39.38	236.096	8.02002
-39.3749	245.7509	8.08838
-39.3687	254.064	8.15674
-39.3628	261.32	8.2251
-39.3581	268.755	8.293457
-39.3519	268.032	8.36182
-39.3465	269.252	8.43018
-39.341	267.087	8.49854
-39.3356	261.988	8.56689
-39.3303	259.474	8.63525
-39.32468	261.242	8.70361
-39.3175	272.487	8.77197
-39.3121	276.549	8.840332
-39.3061	287.161	8.90869
-39.3002	295.2605	8.97705
-39.2943	298.239	9.04541
-39.2898	299.908	9.11377
-39.2833	299.489	9.18213
-39.2776	295.3959	9.25049
-39.2725	289.403	9.31885
-39.2663	290.841	9.387207
-39.2605	296.801	9.45557
-39.25526	301.599	9.52393
-39.2486	311.7059	9.59229
-39.2436	321.669	9.66064
-39.23764	324.1	9.729
-39.2319	331.088	9.79736
-39.228	331.99	9.86572
-39.2209	325.338	9.934082
-39.216	319.542	10.0024
-39.20977	320.695	10.0708
-39.2036	324.644	10.13916
-39.19857	325.429	10.20752
-39.1933	331.995	10.2759
-39.1872	343.304	10.3442
-39.1801	350.113	10.4126
-39.1749	354.218	10.481
-39.1701	358.737	10.5493
-39.1646	352.902	10.6177
-39.1585	349.692	10.686
-39.153	351.042	10.7544
-39.1465	350.826	10.8228
-39.1407	348.05	10.8911
-39.1356	354.447	10.9595
-39.1294	362.242	11.0278
-39.1249	370.493	11.0962
-39.1184	377.999	11.1646
-39.113	383.8757	11.23291
-39.1064	381.918	11.30127
-39.1026	379.37	11.3696
-39.0957	377.754	11.438
-39.0908	375.066	11.5063
-39.0833	372.384	11.5747
-39.0789	375.454	11.6431
-39.0732	381.314	11.7114
-39.0671	389.547	11.7798
-39.0612	397.988	11.8481
-39.0552	404.339	11.9165
-39.0488	404.1	11.9849
-39.0445	401.827	12.0532
-39.0387	402.8671	12.1216
-39.0334	397.207	12.1899
-39.0276	394.712	12.2583
-39.0223	394.56	12.32666
-39.0151	397.233	12.39502
-39.0096	403.911	12.4634
-39.00378	412.3468	12.5317
-38.9984	418.276	12.6001
-38.9937	419.838	12.6685
-38.987	421.736	12.7368
-38.9809	422.546	12.8052
-38.976	416.9462	12.8735
-38.9704	412.714	12.9419
-38.9653	410.995	13.0103
-38.959	409.482	13.0786
-38.954	415.5676	13.147
-38.9471	421.777	13.2153
-38.9418	427.232	13.2837
-38.9369	431.515	13.3521
-38.9302	435.714	13.42041
-38.9239	436.164	13.48877
-38.9195	433.059	13.5571
-38.91293	428.005	13.6255
-38.9073	423.372	13.6938
-38.9022	420.423	13.7622
-38.8965	421.903	13.8306
-38.8914	426.689	13.8989
-38.8843	430.741	13.9673
-38.8791	437.837	14.0356
-38.8741	445.765	14.104
-38.8678	445.972	14.1724
-38.8629	441.931	14.2407
-38.8559	438.209	14.3091
-38.8502	432.762	14.3774
-38.8455	427.795	14.4458
-38.8401	426.444	14.51416
-38.8342	429.748	14.58252
-38.8272	431.446	14.6509
-38.8214	436.132	14.7192
-38.8171	448.246	14.7876
-38.8114	447.793	14.856
-38.8052	446.17	14.9243
-38.7988	445.841	14.9927
-38.7937	438.695	15.061
-38.78833	431.306	15.1294
-38.78228	429.671	15.1978
-38.777	428.213	15.2661
-38.7706	427.481	15.3345
-38.7662	434.494	15.4028
-38.7605	444.69	15.4712
-38.7543	447.096	15.5396
-38.7488	448.227	15.60791
-38.7417	448.91	15.67627
-38.7368	442.569	15.7446
-38.7318	434.415	15.813
-38.725	430.692	15.8813
-38.718	427.4964	15.9497
-38.7146	423.731	16.0181
-38.7096	427.994	16.0864
-38.70245	438.429	16.1548
-38.69717	442.816	16.2231
-38.6903	444.048	16.2915
-38.6861	448.397	16.3599
-38.6795	443.046	16.4282
-38.6744	436.379	16.4966
-38.66906	432.636	16.5649
-38.6627	426.799	16.6333
-38.6577	419.439	16.70166
-38.6509	422.448	16.77002
-38.64613	430.767	16.8384
-38.6401	435.399	16.9067
-38.6339	439.714	16.9751
-38.6281	443.079	17.0435
-38.6227	440.795	17.1118
-38.6175	435.658	17.1802
-38.6114	431.453	17.2485
-38.6056	422.454	17.3169
-38.5996	415.506	17.3853
-38.5959	417.266	17.4536
-38.5887	424.7399	17.522
-38.5831	426.818	17.5903
-38.5772	432.696	17.6587
-38.5728	437.398	17.7271
-38.56488	439.4	17.79541
-38.5605	435.544	17.86377
-38.5546	433.077	17.9321
-38.5493	422.954	18.0005
-38.5429	416.3472	18.0688
-38.53627	414.925	18.1372
-38.53196	417.94	18.2056
-38.5261	421.927	18.2739
-38.5198	427.962	18.3423
-38.5146	432.812	18.4106
-38.51	435.642	18.479
-38.5032	435.956	18.5474
-38.4974	431.76	18.6157
-38.4916	424.981	18.6841
-38.4868	417.239	18.7524
-38.4808	415.185	18.8208
-38.4757	414.893	18.88916
-38.4695	415.612	18.95752
-38.4636	422.392	19.0259
-38.4576	427.7406	19.0942
-38.4525	432.627	19.1626
-38.4458	436.783	19.231
-38.4402	432.673	19.2993
-38.436	425.3295	19.3677
-38.4304	418.869	19.436
-38.4245	417.099	19.5044
-38.4177	412.158	19.5728
-38.41153	412.59	19.6411
-38.4072	416.222	19.7095
-38.4021	420.463	19.7778
-38.3943	428.982	19.8462
-38.3896	432.016	19.9146
-38.3849	432.41	19.98291
-38.3805	411.625	20.0122

Data Header:			0.254_hd_uprint_typeiv_090_r0			Time:	34.2183	s	4/13/2019 10:56:06 PM
Data Acquisition:	Timed
Station Name:	ft40.cfg
Test File Name:	monotonic_0.2540_typeiv_solid_4545_uprint.tst
Displacement	Force	Running Time
mm	N	s
-38.37957	418.705	20.022
-38.3763	414.044	20.0708
-38.3728	423.324	20.1196
-38.3681	428.644	20.1685
-38.3647	421.2699	20.2173
-38.3601	413.035	20.2661
-38.3559	416.3364	20.3149
-38.3509	428.557	20.36377
-38.3469	427.802	20.4126
-38.3436	416.028	20.4614
-38.3404	410.2	20.5103
-38.3346	420.662	20.5591
-38.3318	430.469	20.60791
-38.3278	425.565	20.6567
-38.32428	414.077	20.7056
-38.3197	415.476	20.7544
-38.3155	426.822	20.8032
-38.3101	426.757	20.8521
-38.3072	416.8118	20.9009
-38.3034	410.7233	20.9497
-38.2995	419.539	20.9985
-38.2949	431.9668	21.0474
-38.2907	426.225	21.0962
-38.28669	411.046	21.14502
-38.2823	410.993	21.1938
-38.2778	425.049	21.2427
-38.275	429.883	21.2915
-38.2708	420.418	21.3403
-38.267	411.517	21.38916
-38.262	418.142	21.438
-38.2587	427.701	21.4868
-38.25449	425.055	21.5356
-38.2501	412.666	21.5845
-38.2463	410.044	21.6333
-38.2421	423.249	21.6821
-38.2372	431.62	21.731
-38.2337	421.523	21.7798
-38.2302	409.214	21.8286
-38.2256	413.453	21.8774
-38.2212	426.476	21.92627
-38.2183	428.351	21.9751
-38.2143	416.254	22.0239
-38.2105	409.992	22.0728
-38.2046	420.871	22.1216
-38.2006	429.221	22.17041
-38.1969	421.8877	22.2192
-38.1925	410.505	22.2681
-38.1898	411.155	22.3169
-38.1849	425.838	22.3657
-38.1812	430.7496	22.4146
-38.1773	418.238	22.4634
-38.173	409.715	22.5122
-38.1682	416.922	22.561
-38.1642	429.314	22.6099
-38.1599	425.317	22.6587
-38.1574	409.94	22.70752
-38.1524	408.381	22.7563
-38.1484	423.337	22.8052
-38.144	430.804	22.854
-38.14006	417.694	22.9028
-38.1374	406.461	22.95166
-38.1318	412.734	23.0005
-38.1276	427.207	23.0493
-38.125	427.6524	23.0981
-38.1199	414.912	23.147
-38.1163	408.287	23.1958
-38.1115	419.957	23.2446
-38.1079	429.024	23.2935
-38.1035	420.577	23.3423
-38.1012	407.894	23.3911
-38.095	410.8606	23.4399
-38.0926	424.2652	23.48877
-38.08754	428.2713	23.5376
-38.0834	414.54	23.5864
-38.0787	404.7121	23.6353
-38.0762	416	23.6841
-38.0708	428.798	23.73291
-38.0672	426.2005	23.7817
-38.063	412.812	23.8306
-38.0589	410.3381	23.8794
-38.0564	423.471	23.9282
-38.0512	428.415	23.9771
-38.0467	416.961	24.0259
-38.043	406.365	24.0747
-38.0389	413.214	24.1235
-38.0347	426.402	24.1724
-38.0315	425.239	24.2212
-38.0268	409.23	24.27002
-38.0218	405.836	24.3188
-38.0194	417.535	24.3677
-38.0144	429.21	24.4165
-38.0107	421.028	24.4653
-38.0058	409.411	24.51416
-38.0014	412.992	24.563
-37.9978	425.6626	24.6118
-37.9941	425.929	24.6606
-37.99025	413.101	24.7095
-37.9861	406.478	24.7583
-37.9811	414.842	24.8071
-37.9778	426.146	24.856
-37.97361	420.784	24.9048
-37.9692	409.5527	24.9536
-37.966	406.004	25.0024
-37.962	420.197	25.05127
-37.9573	426.724	25.1001
-37.953	416.879	25.1489
-37.949	409.1615	25.1978
-37.9442	416.134	25.2466
-37.9412	427.707	25.29541
-37.9363	421.956	25.3442
-37.9333	409.059	25.3931
-37.9286	406.645	25.4419
-37.9247	419.186	25.4907
-37.92067	425.347	25.5396
-37.9166	415.3992	25.5884
-37.912	407.158	25.6372
-37.909	409.916	25.686
-37.9051	422.8078	25.7349
-37.90163	421.623	25.7837
-37.896	411.6048	25.83252
-37.8923	407.136	25.8813
-37.8882	418.752	25.9302
-37.884	427.025	25.979
-37.8793	415.772	26.0278
-37.8759	407.14	26.07666
-37.8729	410.777	26.1255
-37.8681	422.845	26.1743
-37.8641	422.9715	26.2231
-37.8599	412.743	26.272
-37.8551	406.823	26.3208
-37.85199	412.865	26.3696
-37.8481	422.029	26.4185
-37.8427	417.458	26.4673
-37.84	405.887	26.5161
-37.8361	409.683	26.5649
-37.8311	423.35	26.61377
-37.8272	427.6889	26.6626
-37.8236	415.05	26.7114
-37.8191	405.676	26.7603
-37.8144	414.157	26.8091
-37.8119	424.178	26.85791
-37.8061	419.618	26.9067
-37.80286	407.7493	26.9556
-37.7994	406.265	27.0044
-37.7954	418.158	27.0532
-37.7901	422.14	27.1021
-37.78595	412.991	27.1509
-37.7832	404.633	27.1997
-37.7786	411.926	27.2485
-37.77317	425.247	27.2974
-37.7702	423.972	27.3462
-37.76569	409.816	27.39502
-37.7632	406.734	27.4438
-37.7576	418.018	27.4927
-37.7534	426.335	27.5415
-37.7502	416.892	27.5903
-37.7449	403.45	27.63916
-37.7417	407.955	27.688
-37.7379	420.554	27.7368
-37.7323	420.534	27.7856
-37.7306	407.1456	27.8345
-37.7251	402.464	27.8833
-37.7223	413.531	27.9321
-37.71693	424.5892	27.981
-37.7136	420.428	28.0298
-37.7104	407.1123	28.0786
-37.70499	407.2171	28.1274
-37.70089	421.777	28.17627
-37.6967	424.67	28.2251
-37.6937	411.258	28.2739
-37.6883	403.678	28.3228
-37.6858	411.5715	28.3716
-37.6819	423.393	28.42041
-37.6771	417.336	28.4692
-37.6729	403.4	28.5181
-37.6703	401.644	28.5669
-37.6652	415.804	28.6157
-37.6608	425.671	28.6646
-37.6562	416.593	28.7134
-37.6521	403.8175	28.7622
-37.6481	409.479	28.811
-37.6437	423.246	28.8599
-37.6401	422.755	28.9087
-37.6362	406.6394	28.95752
-37.6316	401.736	29.0063
-37.6277	414.612	29.0552
-37.6238	422.904	29.104
-37.6194	413.875	29.1528
-37.6153	398.93	29.20166
-37.6121	401.979	29.2505
-37.6071	420.091	29.2993
-37.6041	423.399	29.3481
-37.5994	410.671	29.397
-37.5949	402.567	29.4458
-37.59063	411.485	29.4946
-37.5875	423.91	29.5435
-37.5822	419.15	29.5923
-37.5784	404.392	29.6411
-37.5751	403.566	29.6899
-37.5707	416.956	29.73877
-37.5668	423.975	29.7876
-37.5623	408.788	29.8364
-37.5595	396.531	29.8853
-37.5544	405.265	29.9341
-37.5508	418.517	29.98291
-37.5468	418.661	30.0317
-37.5423	404.877	30.0806
-37.5369	401.026	30.1294
-37.5346	413.548	30.1782
-37.5293	421.03	30.2271
-37.52541	410.907	30.2759
-37.5221	399.757	30.3247
-37.518	404.196	30.3735
-37.5144	418.04	30.4224
-37.50967	419.713	30.4712
-37.5065	404.756	30.52002
-37.5015	396.517	30.5688
-37.4972	407.233	30.6177
-37.4933	417.75	30.6665
-37.4896	413.435	30.7153
-37.4854	400.9	30.76416
-37.4813	403.253	30.813
-37.4767	414.073	30.8618
-37.4732	416.907	30.9106
-37.47	405.387	30.9595
-37.4643	398.866	31.0083
-37.4604	407.5451	31.0571
-37.4564	417.943	31.106
-37.45417	413.741	31.1548
-37.449	398.571	31.2036
-37.4449	397.917	31.2524
-37.4405	408.567	31.30127
-37.4367	412.443	31.3501
-37.433	403.4465	31.3989
-37.4285	394.031	31.4478
-37.4224	-98.98748	31.4966
-37.4188	-30.71866	31.54541
-37.4155	-34.0805	31.5942
-37.4124	-44.1661	31.6431
-37.40852	-48.3507	31.6919
-37.4031	-40.39502	31.7407
-37.3994	-31.5444	31.7896
-37.3957	-35.7171	31.8384
-37.392	-47.1553	31.8872
-37.3874	-48.5938	31.936
-37.3832	-37.4523	31.9849
-37.3797	-33.9461	32.0337
-37.3758	-42.2556	32.08252
-37.3712	-48.5918	32.1313
-37.3674	-41.7567	32.1802
-37.3613	-29.9722	32.229
-37.359	-37.2035	32.2778
-37.3558	-47.7857	32.32666
-37.3501	-46.1809	32.3755
-37.3464	-36.7915	32.4243
-37.3423	-31.9916	32.4731
-37.34	-41.77924	32.522
-37.3338	-48.8796	32.5708
-37.3308	-44.9211	32.6196
-37.3267	-35.7486	32.6685
-37.3228	-36.067	32.7173
-37.3187	-47.69577	32.7661
-37.315	-49.5155	32.8149
-37.3102	-38.7794	32.86377
-37.3052	-32.1836	32.9126
-37.3025	-40.0712	32.9614
-37.2974	-49.8904	33.0103
-37.2938	-45.1252	33.0591
-37.2892	-34.6676	33.10791
-37.2858	-33.5785	33.1567
-37.2816	-44.2308	33.2056
-37.2769	-47.5356	33.2544
-37.2739	-41.7805	33.3032
-37.2705	-33.768	33.3521
-37.2657	-40.5734	33.4009
-37.2611	-49.6324	33.4497
-37.2573	-47.2739	33.4985
-37.253	-34.361	33.5474
-37.2494	-32.9963	33.5962
-37.2456	-45.63	33.64502
-37.24041	-50.7652	33.6938
-37.2378	-42.4097	33.7427
-37.2332	-32.0033	33.7915
-37.2297	-36.1608	33.8403
-37.2249	-48.6139	33.88916
-37.2207	-48.2965	33.938
-37.217	-35.9301	33.9868
-37.21244	-33.0807	34.0356
-37.2082	-42.5454	34.0845
-37.20533	-51.9735	34.1333
-37.2	-44.5338	34.1821
-37.1992	-40.5825	34.2114