File: data/processed_data_files/tensile/0.254_hd_uprint_typei_090_r(4).dat
MTS793|BTW|ENU|1|2|.|/|:|1|0|0|A

Data Header:			0.254_hd_uprint_typei_090_r0			Time:	20.03	s	4/15/2019 3:54:51 PM
Data Acquisition:	Timed
Station Name:	ft40.cfg
Test File Name:	monotonic_0.2540_typei_hd_090_uprint.tst
Displacement	Force	Running Time
mm	N	s
9.98018	-231.33	0.0339355
9.98143	-225.045	0.102295
9.987793	-229.114	0.1706543
9.99285	-229.246	0.239014
9.99805	-227.692	0.307373
10.0037	-228.603	0.375732
10.0108	-226.042	0.4440918
10.0154	-223.917	0.512451
10.0208	-218.044	0.580811
10.0259	-218.622	0.64917
10.0335	-216.695	0.7175293
10.0374	-210.53	0.785889
10.0438	-211.53	0.854248
10.04967	-213.442	0.922607
10.055	-212.5058	0.9909668
10.06063	-212.658	1.05933
10.0664	-211.452	1.12769
10.0728	-208.467	1.19604
10.07883	-202.701	1.2644
10.0831	-201.933	1.33276
10.0893	-198.512	1.401123
10.0954	-192.384	1.46948
10.1007	-191.852	1.53784
10.1064	-191.301	1.6062
10.1121	-192.551	1.67456
10.118	-192.688	1.74292
10.1241	-189.961	1.81128
10.1287	-186.893	1.87964
10.1345	-184.014	1.947998
10.141	-180.945	2.01636
10.146	-176.378	2.08472
10.15225	-167.789	2.15308
10.1578	-166.762	2.22144
10.1639	-163.928	2.28979
10.16789	-164.493	2.35815
10.1755	-166.687	2.42651
10.1807	-163.182	2.494873
10.1866	-160.405	2.56323
10.1919	-159.257	2.63159
10.1967	-157.943	2.69995
10.2027	-149.317	2.76831
10.2081	-142.7	2.83667
10.2139	-141.196	2.90503
10.2213	-137.343	2.97339
10.2261	-134.56	3.041748
10.23201	-136.632	3.11011
10.2374	-134.328	3.17847
10.2429	-131.955	3.24683
10.2495	-133.077	3.31519
10.2547	-130.852	3.38354
10.2598	-123.4625	3.4519
10.2655	-113.653	3.52026
10.2716	-110.979	3.588623
10.2774	-107.697	3.65698
10.2822	-104.009	3.72534
10.2892	-103.723	3.7937
10.2941	-103.575	3.86206
10.3001	-99.9547	3.93042
10.3058	-101.4686	3.99878
10.311	-100.5714	4.06714
10.3173	-92.9956	4.135498
10.3223	-84.3249	4.20386
10.3287	-82.3122	4.27222
10.3338	-75.6841	4.34058
10.3408	-70.3661	4.40894
10.3461	-70.5242	4.47729
10.3507	-71.8166	4.54565
10.35729	-66.9985	4.61401
10.3629	-68.7594	4.682373
10.3676	-69.3712	4.75073
10.3734	-63.2774	4.81909
10.3791	-53.3259	4.88745
10.3856	-50.673	4.95581
10.3911	-44.8247	5.02417
10.3967	-38.7568	5.09253
10.4036	-36.7774	5.16089
10.4081	-37.0187	5.229248
10.4136	-35.121	5.29761
10.42017	-35.9511	5.36597
10.4257	-35.8207	5.43433
10.4311	-31.8507	5.50269
10.4368	-24.3424	5.57104
10.4426	-20.7913	5.6394
10.4483	-15.0143	5.70776
10.4536	-6.949389	5.776123
10.4593	-3.80942	5.84448
10.4657	-0.56274	5.91284
10.4709	0.120582	5.9812
10.4764	-1.49712	6.04956
10.4816	-2.96351	6.11792
10.4879	2.07198	6.18628
10.4928	6.07459	6.25464
10.4986	10.6899	6.322998
10.5046	17.2255	6.39136
10.5114	24.0953	6.45972
10.5159	28.86027	6.52808
10.5212	32.4834	6.59644
10.5283	35.3346	6.66479
10.5327	31.63258	6.73315
10.5385	32.1351	6.80151
10.544	36.20689	6.869873
10.551	40.9814	6.93823
10.55658	44.6693	7.00659
10.5614	51.3639	7.07495
10.56849	56.0537	7.14331
10.5733	62.9663	7.21167
10.5787	67.3674	7.28003
10.5843	71.6751	7.34839
10.5898	64.9839	7.416748
10.5961	68.2217	7.48511
10.6016	72.6029	7.55347
10.6073	75.167	7.62183
10.613	74.6088	7.69019
10.6186	81.0582	7.75854
10.62402	87.8859	7.8269
10.6303	91.577	7.89526
10.6361	99.3827	7.963623
10.6418	102.914	8.03198
10.6476	102.393	8.10034
10.654	103.153	8.1687
10.6589	109.976	8.23706
10.6641	107.358	8.30542
10.6701	109.6913	8.37378
10.6751	115.994	8.44214
10.6817	120.758	8.510498
10.68711	123.452	8.57886
10.6925	130.891	8.64722
10.6995	135.188	8.71558
10.70472	135.7131	8.78394
10.7094	136.83	8.85229
10.7158	144.362	8.92065
10.72096	143.686	8.98901
10.7261	142.416	9.057373
10.7334	146.048	9.12573
10.7385	151.625	9.19409
10.7432	156.429	9.26245
10.7491	163.645	9.33081
10.7555	168.675	9.39917
10.7607	170.3577	9.46753
10.7663	171.193	9.53589
10.7723	177.2603	9.604248
10.7785	177.412	9.67261
10.7837	178.431	9.74097
10.789	181.5899	9.80933
10.7956	182.974	9.87769
10.8024	187.192	9.94604
10.8069	193.965	10.0144
10.8132	198.38	10.0828
10.818	201.827	10.1511
10.824	205.966	10.2195
10.8294	213.84	10.2878
10.8349	213.558	10.3562
10.8414	213.128	10.4246
10.8469	215.624	10.49292
10.8519	215.446	10.5613
10.8579	219.747	10.6296
10.8633	226.33	10.698
10.8701	230.093	10.7664
10.8746	234.102	10.8347
10.8807	239.661	10.9031
10.88638	246.132	10.9714
10.89213	246.644	11.0398
10.8974	249.271	11.1082
10.9027	249.868	11.1765
10.9091	249.974	11.2449
10.9138	251.475	11.3132
10.921	257.6474	11.3816
10.9261	261.108	11.45
10.9328	264.145	11.5183
10.9371	274.284	11.58667
10.94294	280.665	11.655
10.9496	278.867	11.7234
10.9548	283.161	11.7917
10.9606	283.273	11.8601
10.9659	283.047	11.9285
10.97219	284.894	11.9968
10.9785	289.666	12.0652
10.9838	290.428	12.1335
10.989	294.711	12.2019
10.9954	304.512	12.2703
11.0006	312.863	12.3386
11.00586	312.281	12.407
11.0116	317.2446	12.4753
11.018	319.618	12.5437
11.023	317.965	12.6121
11.0283	320.0939	12.68042
11.035	321.946	12.7488
11.0411	323.042	12.8171
11.0468	324.123	12.8855
11.0514	332.868	12.9539
11.0574	341.5791	13.0222
11.06263	344.099	13.0906
11.0681	348.3313	13.1589
11.0754	352.528	13.2273
11.0799	351.836	13.2957
11.0854	352.344	13.364
11.0916	353.895	13.4324
11.0987	354.575	13.5007
11.1033	356.036	13.5691
11.1083	364.546	13.6375
11.1147	372.229	13.7058
11.12	375.644	13.77417
11.1256	381.489	13.8425
11.1319	385.325	13.9109
11.1364	384.895	13.9792
11.1425	385.872	14.0476
11.1484	384.341	14.116
11.1537	383.669	14.1843
11.1596	386.0661	14.2527
11.1652	393.139	14.321
11.1706	400.472	14.3894
11.1774	407.355	14.4578
11.1824	413.222	14.5261
11.1883	413.675	14.5945
11.1941	417.123	14.6628
11.1995	420.0972	14.7312
11.2049	418.857	14.7996
11.2115	414.712	14.86792
11.2161	416.712	14.9363
11.2219	424.3284	15.0046
11.2287	428.009	15.073
11.23407	434.896	15.1414
11.2393	443.138	15.2097
11.24517	445.7453	15.2781
11.2512	448.899	15.3464
11.2569	451.341	15.4148
11.263	450.431	15.4832
11.2684	446.454	15.5515
11.2729	448.419	15.6199
11.2803	456.198	15.6882
11.2855	456.731	15.7566
11.2908	461.968	15.825
11.2966	472.231	15.8933
11.3033	473.597	15.96167
11.308	480.622	16.03
11.3133	482.957	16.0984
11.3187	485.113	16.1667
11.3257	478.116	16.2351
11.3307	479.269	16.3035
11.3366	484.424	16.3718
11.3413	485.422	16.4402
11.34727	491.529	16.5085
11.3534	500.021	16.5769
11.3595	504.248	16.6453
11.3642	507.161	16.7136
11.371	513.261	16.782
11.3757	515.094	16.8503
11.382	511.867	16.9187
11.388	512.819	16.9871
11.3929	518.557	17.05542
11.39906	515.255	17.1238
11.4051	518.757	17.1921
11.4105	526.381	17.2605
11.4165	531.874	17.3289
11.42181	536.681	17.3972
11.4274	541.2522	17.4656
11.4328	543.635	17.5339
11.4387	542.957	17.6023
11.4442	542.109	17.6707
11.4504	547.907	17.739
11.4562	545.7337	17.8074
11.4616	547.528	17.8757
11.4674	552.997	17.9441
11.4724	557.353	18.0125
11.47921	565.218	18.0808
11.4846	568.648	18.14917
11.4909	572.717	18.2175
11.4956	574.12	18.2859
11.50142	576.4505	18.3542
11.5062	575.492	18.4226
11.5123	574.906	18.491
11.5174	576.942	18.5593
11.52372	579.673	18.6277
11.5298	583.439	18.696
11.5356	589.275	18.7644
11.5414	595.856	18.8328
11.547	597.558	18.9011
11.5522	601.682	18.9695
11.5576	604.255	19.0378
11.5642	606.527	19.1062
11.5701	604.773	19.1746
11.5761	604.342	19.24292
11.5808	607.272	19.3113
11.5863	609.748	19.3796
11.5922	615.225	19.448
11.5979	623.028	19.5164
11.6042	624.497	19.5847
11.6093	628.629	19.6531
11.6153	634.9234	19.7214
11.6209	634.795	19.7898
11.627	632.308	19.8582
11.6319	635.9552	19.9265
11.6383	634.908	19.9949
11.6407	645.498	20.02417

Data Header:			0.254_hd_uprint_typei_090_r0			Time:	40.0295	s	4/15/2019 3:55:11 PM
Data Acquisition:	Timed
Station Name:	ft40.cfg
Test File Name:	monotonic_0.2540_typei_hd_090_uprint.tst
Displacement	Force	Running Time
mm	N	s
11.6415	645.445	20.0339
11.6466	644.3	20.1023
11.6538	645.2879	20.1707
11.65898	646.84	20.239
11.6632	646.729	20.3074
11.6699	648.103	20.3757
11.675	651.8902	20.4441
11.6808	656.48	20.5125
11.6866	665.121	20.5808
11.6928	669.641	20.64917
11.6981	673.825	20.7175
11.7042	672.167	20.7859
11.71	673.607	20.8542
11.7153	675.529	20.9226
11.7214	672.81	20.991
11.7277	676.773	21.0593
11.7328	677.894	21.1277
11.7385	683.195	21.196
11.7432	687.826	21.2644
11.7498	694.969	21.3328
11.7547	697.081	21.4011
11.7614	698.366	21.4695
11.7668	700.009	21.5378
11.7719	705.0072	21.6062
11.7782	700.794	21.6746
11.7851	703.7229	21.74292
11.7894	704.503	21.8113
11.7951	705.774	21.8796
11.8009	712.035	21.948
11.8068	718.03	22.0164
11.811	720.016	22.0847
11.8186	721.71	22.1531
11.8236	726.698	22.2214
11.8295	731.134	22.2898
11.8344	727.424	22.3582
11.8411	726.26	22.4265
11.8482	729.57	22.4949
11.8532	728.153	22.5632
11.8584	732.737	22.6316
11.864	739.0426	22.7
11.8688	740.586	22.7683
11.8761	744.622	22.83667
11.8809	750.118	22.905
11.8868	755.206	22.9734
11.8926	752.267	23.0417
11.89718	753.8175	23.1101
11.9031	753.455	23.1785
11.909	752.4903	23.2468
11.9138	754.985	23.3152
11.9204	758.114	23.3835
11.9258	759.783	23.4519
11.932	765.8	23.5203
11.9384	771.849	23.5886
11.943	777.695	23.657
11.9484	777.414	23.7253
11.9548	776.699	23.7937
11.9603	776.826	23.8621
11.9656	775.956	23.93042
11.9715	776.296	23.9988
11.9775	780.429	24.0671
11.9834	779.262	24.1355
11.9893	783.2312	24.2039
11.995	790.517	24.2722
12	795.939	24.3406
12.007	797.414	24.4089
12.011	798.5376	24.4773
12.0174	796.151	24.5457
12.0229	797.968	24.614
12.0277	797.254	24.6824
12.0341	797.498	24.7507
12.0398	796.59	24.8191
12.0456	802.7157	24.8875
12.0518	808.387	24.9558
12.0573	812.73	25.02417
12.06387	816.735	25.0925
12.0687	818.678	25.1609
12.0744	816.998	25.2292
12.08	815.1673	25.2976
12.08572	814.934	25.366
12.0916	814.454	25.4343
12.0976	811.164	25.5027
12.1017	816.2392	25.571
12.1085	823.272	25.6394
12.1147	826.9538	25.7078
12.1196	830.896	25.7761
12.1258	835.095	25.8445
12.1309	834.435	25.9128
12.1362	831.2149	25.9812
12.1432	831.9516	26.0496
12.149	829.852	26.11792
12.1539	825.382	26.1863
12.1594	826.34	26.2546
12.1646	834.146	26.323
12.1716	837.203	26.3914
12.1761	839.4599	26.4597
12.1825	844.503	26.5281
12.189	846.066	26.5964
12.1941	844.249	26.6648
12.1995	842.752	26.7332
12.2058	840.243	26.8015
12.2113	835.291	26.8699
12.216	833.668	26.9382
12.2219	841.132	27.0066
12.2282	844.802	27.075
12.2338	845.912	27.1433
12.2394	851.616	27.21167
12.246	854.622	27.28
12.2503	853.144	27.3484
12.2573	851.7804	27.4167
12.2624	849.716	27.4851
12.2686	842.635	27.5535
12.2742	840.188	27.6218
12.2784	844.129	27.6902
12.2851	846.734	27.7585
12.2909	849.143	27.8269
12.2954	851.949	27.8953
12.3026	855.2019	27.9636
12.3083	858.272	28.032
12.31316	855.652	28.1003
12.3192	851.373	28.1687
12.3256	845.411	28.2371
12.3311	843.698	28.30542
12.3364	845.291	28.3738
12.3427	846.366	28.4421
12.348	845.8089	28.5105
12.3528	849.112	28.5789
12.3594	852.191	28.6472
12.365	855.05	28.7156
12.3704	857.109	28.7839
12.377	853.548	28.8523
12.38195	845.055	28.9207
12.3875	842.985	28.989
12.3927	844.8028	29.0574
12.3988	841.1568	29.1257
12.4042	844.447	29.1941
12.4098	846.214	29.2625
12.4148	846.922	29.3308
12.4211	850.491	29.39917
12.4271	852.575	29.4675
12.4331	849.009	29.5359
12.4391	844.528	29.6042
12.4445	841.885	29.6726
12.45003	842.715	29.741
12.4556	837.186	29.8093
12.4616	836.666	29.8777
12.4675	840.137	29.946
12.4742	840.2821	30.0144
12.4783	845.317	30.0828
12.4854	847.79	30.1511
12.4904	846.06	30.2195
12.4959	838.739	30.2878
12.5014	838.217	30.3562
12.5069	839.261	30.4246
12.5132	833.637	30.49292
12.51931	832.254	30.5613
12.52411	834.381	30.6296
12.5304	834.94	30.698
12.5364	836.796	30.7664
12.542	840.535	30.8347
12.5464	839.225	30.9031
12.552	836.899	30.9714
12.5582	834.792	31.0398
12.56463	835.474	31.1082
12.5692	831.289	31.1765
12.576	828.02	31.2449
12.5814	828.864	31.3132
12.5855	828.5614	31.3816
12.5928	830.495	31.45
12.598	837.453	31.5183
12.6041	835.628	31.58667
12.6096	834.341	31.655
12.6153	834.596	31.7234
12.6222	835.293	31.7917
12.6266	828.984	31.8601
12.6328	827.409	31.9285
12.6381	825.6557	31.9968
12.6448	823.12	32.0652
12.6503	826.219	32.1335
12.6561	828.206	32.2019
12.6611	828.983	32.2703
12.6677	830.209	32.3386
12.6708	831.795	32.407
12.6778	834.065	32.4753
12.6847	828.99	32.5437
12.6897	824.7652	32.6121
12.6961	823.922	32.68042
12.7005	819.714	32.7488
12.7064	823.471	32.8171
12.7123	822.36	32.8855
12.7179	823.765	32.9539
12.7242	826.653	33.0222
12.7299	831.451	33.0906
12.7348	830.041	33.1589
12.7398	827.624	33.2273
12.7474	826.48	33.2957
12.7521	822.256	33.364
12.7571	817.976	33.4324
12.7639	820.242	33.5007
12.7697	819.517	33.5691
12.7748	819.629	33.6375
12.7808	822.585	33.7058
12.786	827.045	33.77417
12.7922	829.133	33.8425
12.7975	826.141	33.9109
12.8025	826.364	33.9792
12.8091	824.493	34.0476
12.8137	818.054	34.116
12.8211	817.727	34.1843
12.8257	816.11	34.2527
12.8309	816.252	34.321
12.8374	817.207	34.3894
12.8425	823.294	34.4578
12.8491	825.742	34.5261
12.8545	824.366	34.5945
12.8612	825.013	34.6628
12.8666	824.324	34.7312
12.8722	817.448	34.7996
12.8768	816.435	34.86792
12.883	814.482	34.9363
12.8881	811.654	35.0046
12.8941	813.811	35.073
12.9005	821.4812	35.1414
12.9055	824.529	35.2097
12.9114	823.038	35.2781
12.917	824.469	35.3464
12.9239	822.211	35.4148
12.9289	820.144	35.4832
12.9358	815.956	35.5515
12.9404	814.966	35.6199
12.9454	810.295	35.6882
12.9518	809.708	35.7566
12.9572	815.794	35.825
12.96321	820.519	35.8933
12.9693	821.368	35.96167
12.97379	823.325	36.03
12.9802	823.426	36.0984
12.9856	822.541	36.1667
12.9916	817.671	36.2351
12.9982	814.117	36.3035
13.0022	807.684	36.3718
13.009	807.86	36.4402
13.0141	811.772	36.5085
13.0196	815.453	36.5769
13.0251	816.795	36.6453
13.0304	819.948	36.7136
13.036	821.331	36.782
13.0423	821.302	36.8503
13.0483	818.562	36.9187
13.0544	813.073	36.9871
13.0595	807.185	37.05542
13.0653	807.382	37.1238
13.0704	810.425	37.1921
13.0769	809.786	37.2605
13.0836	815.086	37.3289
13.0886	819.007	37.3972
13.0944	818.794	37.4656
13.0995	817.717	37.5339
13.1042	817.4342	37.6023
13.1106	813.73	37.6707
13.1166	805.921	37.739
13.1225	805.189	37.8074
13.1279	806.931	37.8757
13.13347	805.75	37.9441
13.1396	809.126	38.0125
13.1457	813.366	38.0808
13.1511	812.699	38.14917
13.1563	814.882	38.2175
13.1623	816.598	38.2859
13.16743	810.195	38.3542
13.1729	803.7149	38.4226
13.1803	801.353	38.491
13.1853	802.141	38.5593
13.1908	795.29	38.6277
13.201	-48.5725	38.696
13.2035	-42.7552	38.7644
13.2087	-43.9972	38.8328
13.2136	-41.2683	38.9011
13.21971	-38.1801	38.9695
13.2261	-40.5926	39.0378
13.2324	-48.04047	39.1062
13.2372	-49.395	39.1746
13.2419	-48.2949	39.24292
13.2483	-53.2128	39.3113
13.2535	-52.2316	39.3796
13.2601	-47.0051	39.448
13.2653	-47.7449	39.5164
13.2709	-43.8099	39.5847
13.276	-40.7843	39.6531
13.2825	-41.159	39.7214
13.2888	-46.23111	39.7898
13.2941	-48.4945	39.8582
13.2996	-46.8614	39.9265
13.3054	-50.76302	39.9949
13.3086	-43.56229	40.02417

Data Header:			0.254_hd_uprint_typei_090_r0			Time:	40.64209	s	4/15/2019 3:55:11 PM
Data Acquisition:	Timed
Station Name:	ft40.cfg
Test File Name:	monotonic_0.2540_typei_hd_090_uprint.tst
Displacement	Force	Running Time
mm	N	s
13.30737	-42.94809	40.0339
13.3093	-42.8059	40.0437
13.3105	-47.2992	40.0535
13.3109	-51.0259	40.0632
13.3121	-52.1122	40.073
13.3133	-43.8504	40.0828
13.3129	-40.9934	40.0925
13.3146	-42.1822	40.1023
13.3147	-48.775	40.1121
13.3161	-53.6072	40.1218
13.3166	-50.2318	40.1316
13.31764	-48.39262	40.1414
13.3177	-40.3864	40.1511
13.3196	-42.8466	40.1609
13.3193	-44.6638	40.1707
13.3204	-49.7689	40.18042
13.3207	-55.3205	40.1902
13.3226	-49.31385	40.2
13.3235	-41.969	40.2097
13.3234	-40.42762	40.2195
13.3242	-42.9761	40.2292
13.3256	-52.9048	40.239
13.3268	-50.3092	40.2488
13.3278	-51.1804	40.2585
13.328	-44.3395	40.2683
13.3282	-41.5419	40.2781
13.3298	-44.0178	40.2878
13.33025	-44.0266	40.2976
13.3318	-54.4785	40.3074
13.3312	-50.83279	40.3171
13.3336	-45.0603	40.3269
13.333	-41.607	40.33667
13.33453	-41.1163	40.3464
13.3351	-47.4341	40.3562
13.3357	-49.2627	40.366
13.3372	-51.529	40.3757
13.338	-49.4885	40.3855
13.338	-45.0174	40.3953
13.3393	-42.5716	40.405
13.3403	-41.9846	40.4148
13.3411	-49.72	40.4246
13.3406	-51.0033	40.4343
13.342	-50.4203	40.4441
13.343	-44.6018	40.4539
13.3429	-41.7698	40.4636
13.3441	-43.8957	40.4734
13.3462	-46.8173	40.4832
13.3468	-50.63686	40.49292
13.3472	-49.38731	40.5027
13.3481	-49.5331	40.5125
13.3486	-45.5137	40.5222
13.3503	-40.2556	40.532
13.3508	-44.7469	40.5417
13.35125	-48.258	40.5515
13.3523	-52.4211	40.5613
13.35259	-50.3561	40.571
13.3535	-43.9021	40.5808
13.35505	-45.15921	40.5906
13.3566	-41.8525	40.6003
13.3566	-46.3894	40.6101
13.3565	-49.36935	40.6199
13.3571	-49.0519	40.6296