File: data/processed_data_files/tensile/0.254_hd_dimension_typeiv_090_r(4).dat
MTS793|BTW|ENU|1|2|.|/|:|1|0|0|A

Data Header:			0.254_hd_dimension_typeiv_090_r0			Time:	20.0271	s	4/14/2019 12:31:20 AM
Data Acquisition:	Timed
Station Name:	ft40.cfg
Test File Name:	monotonic_0.2540_typeiv_hd_090_dimension.tst
Displacement	Force	Running Time
mm	N	s
-40.0397	-19.6036	0.0305176
-40.04002	-21.1021	0.098877
-40.0349	-16.2353	0.167236
-40.0295	-11.0867	0.2355957
-40.0221	-10.9265	0.303955
-40.018	-9.921217	0.372314
-40.01162	-4.55312	0.440674
-40.0055	-3.17176	0.5090332
-40.0004	-2.26555	0.577393
-39.9949	1.97836	0.645752
-39.9888	5.05486	0.714111
-39.9833	13.2653	0.7824707
-39.97739	18.40081	0.85083
-39.9725	22.8018	0.919189
-39.9661	23.799	0.987549
-39.96035	26.5031	1.05591
-39.956	31.5834	1.12427
-39.9487	32.0249	1.192627
-39.9443	32.2906	1.26099
-39.9369	35.3071	1.32935
-39.9323	39.2309	1.39771
-39.9278	46.6038	1.46606
-39.9217	51.6096	1.53442
-39.9158	56.0735	1.60278
-39.9093	58.2677	1.67114
-39.90451	63.1976	1.739502
-39.8991	66.20639	1.80786
-39.8936	64.9921	1.87622
-39.8859	67.9298	1.94458
-39.88018	70.7444	2.01294
-39.876	73.0038	2.0813
-39.8704	79.866	2.14966
-39.8642	84.9822	2.21802
-39.8578	88.4193	2.286377
-39.85289	91.3414	2.35474
-39.8471	96.3745	2.4231
-39.842	99.549	2.49146
-39.8349	99.8848	2.55981
-39.82975	102.616	2.62817
-39.8231	102.097	2.69653
-39.8194	105.966	2.76489
-39.8136	113.366	2.833252
-39.8075	114.336	2.90161
-39.8017	117.828	2.96997
-39.7968	122.211	3.03833
-39.7893	129.236	3.10669
-39.7844	133.123	3.17505
-39.779	132.272	3.24341
-39.7739	135.917	3.31177
-39.7664	136.778	3.380127
-39.7619	138.798	3.44849
-39.7561	145.258	3.51685
-39.7508	146.363	3.58521
-39.745	147.2914	3.65356
-39.7389	152.948	3.72192
-39.7338	162.973	3.79028
-39.72797	164.217	3.85864
-39.7219	166.333	3.927002
-39.7157	170.993	3.99536
-39.7105	169.902	4.06372
-39.70578	174.078	4.13208
-39.6997	177.697	4.20044
-39.6938	177.749	4.2688
-39.6889	178.59	4.33716
-39.6816	185.243	4.40552
-39.6771	194.5713	4.473877
-39.67038	194.481	4.54224
-39.6653	199.244	4.6106
-39.6603	202.459	4.67896
-39.6544	203.3867	4.74731
-39.6481	205.932	4.81567
-39.6412	209.638	4.88403
-39.6366	207.459	4.95239
-39.6312	208.928	5.020752
-39.6245	218.255	5.08911
-39.6193	222.099	5.15747
-39.6132	223.687	5.22583
-39.60722	229.425	5.29419
-39.6028	234.977	5.36255
-39.5958	234.6899	5.43091
-39.5917	238.331	5.49927
-39.5846	241.1826	5.567627
-39.5796	239.711	5.63599
-39.5733	238.896	5.70435
-39.5678	248.886	5.77271
-39.5621	251.367	5.84106
-39.5572	254.237	5.90942
-39.5517	259.496	5.97778
-39.54517	263.749	6.04614
-39.5403	266.691	6.114502
-39.5332	269.5	6.18286
-39.5276	271.405	6.25122
-39.5216	267.88	6.31958
-39.5167	270.096	6.38794
-39.51067	277.849	6.4563
-39.5053	281.041	6.52466
-39.499	283.533	6.59302
-39.4938	289.912	6.661377
-39.4884	293.2543	6.72974
-39.4842	298.416	6.7981
-39.4779	299.225	6.86646
-39.4709	298.959	6.93481
-39.4653	299.7337	7.00317
-39.46	300.52	7.07153
-39.4539	305.9	7.13989
-39.4488	308.443	7.208252
-39.44313	313.222	7.27661
-39.4362	316.074	7.34497
-39.4304	320.414	7.41333
-39.42646	324.318	7.48169
-39.41983	326.372	7.55005
-39.4141	326.475	7.61841
-39.4095	327.924	7.68677
-39.4031	329.167	7.755127
-39.398	333.183	7.82349
-39.3911	332.739	7.89185
-39.3853	335.613	7.96021
-39.3813	340.284	8.02856
-39.3746	345.038	8.09692
-39.369	350.751	8.16528
-39.36261	352.8577	8.23364
-39.3574	351.557	8.302002
-39.3506	354.076	8.37036
-39.3465	357.422	8.43872
-39.3397	354.628	8.50708
-39.3338	356.44	8.57544
-39.3288	360.976	8.6438
-39.3232	361.227	8.71216
-39.31715	368.094	8.78052
-39.3112	373.504	8.848877
-39.3057	374.2822	8.91724
-39.301	375.723	8.9856
-39.2951	378.595	9.05396
-39.28899	380.746	9.12231
-39.2838	379.635	9.19067
-39.2772	378.698	9.25903
-39.2734	382.525	9.32739
-39.2663	381.947	9.395752
-39.2607	386.182	9.46411
-39.2541	393.375	9.53247
-39.2486	393.592	9.60083
-39.2438	394.94	9.66919
-39.2372	400.119	9.73755
-39.2319	402.863	9.80591
-39.2265	399.607	9.87427
-39.2206	401.597	9.942627
-39.2153	401.372	10.011
-39.2105	401.166	10.0793
-39.203	405.756	10.1477
-39.1973	409.652	10.2161
-39.1917	409.804	10.2844
-39.1876	412.697	10.3528
-39.1802	417.57	10.4211
-39.17482	418.582	10.4895
-39.1695	415.868	10.5579
-39.1631	418.656	10.6262
-39.1581	418.202	10.69458
-39.152	417.5098	10.7629
-39.1469	420.701	10.8313
-39.1409	424.143	10.8997
-39.1349	421.441	10.968
-39.1297	425.718	11.0364
-39.1232	432.371	11.1047
-39.1175	431.053	11.1731
-39.1123	431.687	11.2415
-39.1063	432.264	11.3098
-39.1024	431.276	11.3782
-39.0951	431.298	11.4465
-39.0889	431.348	11.5149
-39.0839	432.817	11.5833
-39.0786	430.844	11.6516
-39.0717	435.468	11.72
-39.0666	442.53	11.78833
-39.0618	439.615	11.8567
-39.0554	440.516	11.925
-39.0508	444.14	11.9934
-39.0447	441.627	12.0618
-39.039	439.31	12.1301
-39.0326	439.396	12.1985
-39.0275	438.689	12.2668
-39.0215	437.748	12.3352
-39.0164	441.545	12.4036
-39.0099	446.423	12.4719
-39.0042	446.926	12.5403
-38.998	447.513	12.6086
-38.9923	450.828	12.677
-38.9869	447.9	12.7454
-38.9816	448.033	12.8137
-38.9759	445.316	12.88208
-38.9706	443.125	12.9504
-38.9634	441.434	13.0188
-38.9585	448.281	13.0872
-38.9536	447.306	13.1555
-38.9476	449.535	13.2239
-38.9422	451.684	13.2922
-38.9362	451.535	13.3606
-38.9296	453.668	13.429
-38.9249	450.459	13.4973
-38.9185	448.533	13.5657
-38.9134	444.604	13.634
-38.9081	444.866	13.7024
-38.9008	447.046	13.7708
-38.8964	447.28	13.8391
-38.8899	448.664	13.9075
-38.88488	450.832	13.97583
-38.87933	450.315	14.0442
-38.87355	453.136	14.1125
-38.8667	452.881	14.1809
-38.861	448.4	14.2493
-38.8559	444.653	14.3176
-38.8511	445.833	14.386
-38.8434	444.647	14.4543
-38.8397	443.622	14.5227
-38.8332	446.863	14.5911
-38.8277	446.291	14.6594
-38.8225	447.456	14.7278
-38.8164	451	14.7961
-38.8101	451.541	14.8645
-38.8047	445.754	14.9329
-38.79921	442.495	15.0012
-38.7935	443.717	15.06958
-38.78759	440.803	15.1379
-38.7829	438.872	15.2063
-38.7751	442.716	15.2747
-38.77	444.462	15.343
-38.7646	444.035	15.4114
-38.7593	448.095	15.4797
-38.7543	449.457	15.5481
-38.7483	442.785	15.6165
-38.7412	440.705	15.6848
-38.7373	444.539	15.7532
-38.7303	438.658	15.8215
-38.7245	437.643	15.8899
-38.7199	438.1962	15.9583
-38.7132	439.607	16.0266
-38.7078	441.397	16.095
-38.703	444.618	16.16333
-38.6968	443.5751	16.2317
-38.6907	439.328	16.3
-38.6857	441.012	16.3684
-38.6797	442.524	16.4368
-38.6735	434.807	16.5051
-38.6676	434.816	16.5735
-38.663	437.155	16.6418
-38.656	433.438	16.7102
-38.6516	435.8425	16.7786
-38.6448	440.413	16.8469
-38.6392	441.288	16.9153
-38.6332	437.77	16.9836
-38.6275	438.845	17.052
-38.6221	441.097	17.1204
-38.6167	435.241	17.1887
-38.6115	433.571	17.25708
-38.6058	433.172	17.3254
-38.6	433.186	17.3938
-38.5936	434.806	17.4622
-38.5883	436.204	17.5305
-38.58157	436.609	17.5989
-38.577	436.328	17.6672
-38.5723	440.101	17.7356
-38.5655	440.111	17.804
-38.5592	435.4693	17.8723
-38.5538	433.6824	17.9407
-38.5494	433.063	18.009
-38.5425	430.707	18.0774
-38.5365	432.456	18.1458
-38.5315	434.156	18.2141
-38.526	432.783	18.2825
-38.52	433.634	18.35083
-38.5143	439.285	18.4192
-38.5084	438.641	18.4875
-38.5029	435.376	18.5559
-38.497	434.904	18.6243
-38.4916	431.987	18.6926
-38.48592	432.804	18.761
-38.4801	430.521	18.8293
-38.4745	431.9696	18.8977
-38.4703	429.813	18.9661
-38.464	432.069	19.0344
-38.4576	438.663	19.1028
-38.4519	436.17	19.1711
-38.4457	437.115	19.2395
-38.4406	434.767	19.3079
-38.4346	432.894	19.3762
-38.429	432.065	19.44458
-38.4226	430.505	19.5129
-38.4174	428.943	19.5813
-38.4125	427.1304	19.6497
-38.4057	431.707	19.718
-38.4006	435.092	19.7864
-38.3955	433.421	19.8547
-38.3898	433.937	19.9231
-38.3821	433.005	19.9915
-38.38028	426.204	20.0208

Data Header:			0.254_hd_dimension_typeiv_090_r0			Time:	23.0806	s	4/14/2019 12:31:23 AM
Data Acquisition:	Timed
Station Name:	ft40.cfg
Test File Name:	monotonic_0.2540_typeiv_hd_090_dimension.tst
Displacement	Force	Running Time
mm	N	s
-38.37999	431.649	20.0305
-38.3787	432.699	20.05
-38.3773	428.501	20.06958
-38.3752	426.749	20.0891
-38.3735	436.147	20.1086
-38.3716	432.741	20.1282
-38.3701	427.374	20.1477
-38.3686	430.174	20.1672
-38.3669	431.951	20.1868
-38.36433	427.955	20.2063
-38.3631	432.106	20.22583
-38.3619	433.393	20.2454
-38.3606	426.517	20.2649
-38.3595	431.551	20.2844
-38.3573	433.497	20.304
-38.3558	427.9982	20.3235
-38.3532	429.313	20.343
-38.3517	436.366	20.3625
-38.3494	426.717	20.38208
-38.3494	429.363	20.4016
-38.3484	432.25	20.4211
-38.3464	430.2612	20.4407
-38.3441	427.479	20.4602
-38.3424	436.202	20.4797
-38.3402	427.412	20.4993
-38.3385	427.5	20.5188
-38.3374	431.826	20.53833
-38.3353	433.141	20.5579
-38.3349	427.786	20.5774
-38.3329	430.963	20.5969
-38.3314	429.811	20.6165
-38.3296	429.04	20.636
-38.3281	428.183	20.6555
-38.3266	432.98	20.675
-38.3238	426.796	20.69458
-38.3232	427.001	20.7141
-38.32093	430.676	20.7336
-38.3192	429.0849	20.7532
-38.31765	424.169	20.7727
-38.3165	431.169	20.7922
-38.3143	430.841	20.8118
-38.31311	423.994	20.8313
-38.312	429.5	20.85083
-38.3106	431.105	20.8704
-38.3087	425.203	20.8899
-38.3068	430.016	20.9094
-38.306	433.634	20.929
-38.3029	423.053	20.9485
-38.3026	428.878	20.968
-38.3007	430.942	20.9875
-38.299	425.613	21.00708
-38.2969	425.741	21.0266
-38.29533	433.854	21.0461
-38.2943	426.511	21.0657
-38.2912	424.735	21.0852
-38.291	429.038	21.1047
-38.2901	428.189	21.1243
-38.2878	425.252	21.1438
-38.28582	430.461	21.16333
-38.28426	427.393	21.1829
-38.2824	423.78	21.2024
-38.2814	426.952	21.2219
-38.279	430.974	21.2415
-38.2766	424.0441	21.261
-38.2761	426.088	21.2805
-38.2744	428.63	21.3
-38.2731	425.572	21.31958
-38.27095	423.521	21.3391
-38.2697	426.309	21.3586
-38.2676	427.707	21.3782
-38.2657	422.387	21.3977
-38.2651	427.769	21.4172
-38.2621	425.789	21.4368
-38.2618	421.361	21.4563
-38.2591	427.795	21.47583
-38.2578	430.234	21.4954
-38.257	420.802	21.5149
-38.2547	425.395	21.5344
-38.253	428.384	21.554
-38.2526	423.86	21.5735
-38.25	423.478	21.593
-38.2477	430.45	21.6125
-38.2475	419.824	21.63208
-38.24432	424.599	21.6516
-38.2434	427.473	21.6711
-38.2419	422.761	21.6907
-38.2412	421.297	21.7102
-38.23893	428.502	21.7297
-38.237	421.068	21.7493
-38.2362	420.732	21.7688
-38.2336	421.971	21.78833
-38.2315	425.279	21.8079
-38.2299	420.942	21.8274
-38.2286	422.556	21.8469
-38.22805	422.3602	21.8665
-38.2262	418.824	21.886
-38.2225	420.181	21.9055
-38.2224	423.46	21.925
-38.21941	417.751	21.94458
-38.2199	415.32	21.9641
-38.2171	421.06	21.9836
-38.2166	418.856	22.0032
-38.213	413.934	22.0227
-38.2124	417.397	22.0422
-38.21072	415.646	22.0618
-38.2078	410.277	22.0813
-38.2067	414.289	22.10083
-38.2054	407.623	22.1204
-38.201	-58.1043	22.1399
-38.2002	-32.0537	22.1594
-38.1995	-31.8673	22.179
-38.1983	-44.1641	22.1985
-38.197	-38.2699	22.218
-38.196	-38.815	22.2375
-38.1928	-41.3613	22.25708
-38.1929	-40.69775	22.2766
-38.1917	-36.9245	22.2961
-38.1902	-43.643	22.3157
-38.188	-41.0909	22.3352
-38.1859	-38.2458	22.3547
-38.1848	-39.9002	22.3743
-38.182	-43.6686	22.3938
-38.1808	-36.6936	22.41333
-38.1798	-40.3733	22.4329
-38.1784	-42.3396	22.4524
-38.1762	-39.6069	22.4719
-38.1741	-39.3432	22.4915
-38.1716	-42.359	22.511
-38.1712	-41.512	22.5305
-38.1699	-39.1125	22.55
-38.1683	-42.9282	22.56958
-38.16721	-41.3149	22.5891
-38.1664	-37.7406	22.6086
-38.1635	-39.0769	22.6282
-38.1613	-46.6655	22.6477
-38.1599	-38.62685	22.6672
-38.158	-39.6868	22.6868
-38.158	-43.0631	22.7063
-38.1537	-39.7393	22.72583
-38.1544	-37.7026	22.7454
-38.15147	-46.9948	22.7649
-38.1504	-37.5246	22.7844
-38.1486	-39.5602	22.804
-38.1463	-44.0219	22.8235
-38.1448	-41.1161	22.843
-38.1438	-36.3639	22.8625
-38.1422	-46.1822	22.88208
-38.14106	-42.5479	22.9016
-38.1392	-39.0707	22.9211
-38.1375	-41.0952	22.9407
-38.1356	-41.6699	22.9602
-38.135	-37.4317	22.9797
-38.1333	-42.7149	22.9993
-38.13139	-43.2158	23.0188
-38.1303	-39.8805	23.03833
-38.1266	-39.3148	23.0579
-38.1259	-44.736	23.0774