File: data/processed_data_files/tensile/0.254_solid_dimension_typei_4545_r(1).dat
MTS793|BTW|ENU|1|2|.|/|:|1|0|0|A

Data Header:			0.254_solid_dimension_typei_4545_r0			Time:	20.0178	s	4/14/2019 4:41:54 AM
Data Acquisition:	Timed
Station Name:	ft40.cfg
Test File Name:	monotonic_0.2540_typei_solid_4545_dimension.tst
Displacement	Force	Running Time
mm	N	s
9.95651	-124.427	0.0229492
9.95858	-124.337	0.0913086
9.96373	-122.917	0.159668
9.96915	-122.436	0.228027
9.97428	-122.5182	0.296387
9.98037	-123.173	0.364746
9.98622	-128.955	0.433105
9.99245	-121.846	0.501465
9.99777	-113.473	0.569824
10.00333	-108.92	0.638184
10.0095	-100.871	0.706543
10.0146	-93.1506	0.774902
10.0208	-87.9602	0.843262
10.0258	-86.414	0.911621
10.0311	-86.0145	0.97998
10.0385	-89.7706	1.04834
10.0432	-89.78064	1.1167
10.0485	-85.1778	1.18506
10.0538	-83.2142	1.253418
10.0601	-76.7108	1.32178
10.0666	-69.3212	1.39014
10.0727	-62.4253	1.4585
10.078	-52.8041	1.52686
10.0824	-48.31078	1.59521
10.0882	-46.9081	1.66357
10.095	-48.7093	1.73193
10.09979	-50.233	1.800293
10.1055	-47.8474	1.86865
10.1116	-46.6959	1.93701
10.1164	-43.0758	2.00537
10.1227	-34.5521	2.07373
10.1286	-26.5172	2.14209
10.1347	-18.124	2.21045
10.1397	-11.2754	2.27881
10.1459	-11.2568	2.347168
10.15	-10.6418	2.41553
10.1565	-9.92077	2.48389
10.1624	-10.4114	2.55225
10.1679	-9.222991	2.62061
10.1741	-5.86582	2.68896
10.1796	-0.697296	2.75732
10.1849	7.438879	2.82568
10.191	18.5115	2.894043
10.1967	23.4246	2.9624
10.2032	27.8342	3.03076
10.2082	29.7764	3.09912
10.2132	34.2644	3.16748
10.2203	30.8127	3.23584
10.2245	32.2916	3.3042
10.2313	34.2276	3.37256
10.2371	35.5586	3.440918
10.2425	45.03442	3.50928
10.2478	55.5381	3.57764
10.2526	59.643	3.646
10.2593	64.4543	3.71436
10.2657	72.7505	3.78271
10.2711	74.6706	3.85107
10.2768	72.5882	3.91943
10.2828	73.0373	3.987793
10.2885	73.69265	4.05615
10.2934	74.8522	4.12451
10.2996	81.8339	4.19287
10.3049	90.8026	4.26123
10.3113	95.0837	4.32959
10.3153	102.093	4.39795
10.3227	113.441	4.46631
10.3273	116.523	4.534668
10.3329	114.493	4.60303
10.3398	117.969	4.67139
10.3446	116.571	4.73975
10.35048	115.41	4.80811
10.3557	119.859	4.87646
10.3619	126.9938	4.94482
10.3676	130.297	5.01318
10.3735	138.757	5.081543
10.3798	150.595	5.1499
10.3843	154.9144	5.21826
10.3908	156.707	5.28662
10.3961	161.333	5.35498
10.4017	157.6566	5.42334
10.4066	156.699	5.4917
10.4128	160.7606	5.56006
10.4192	163.242	5.628418
10.4242	164.1619	5.69678
10.4306	173.6367	5.76514
10.4361	187.22	5.8335
10.44225	191.269	5.90186
10.4472	197.044	5.97021
10.4527	201.764	6.03857
10.4593	199.071	6.10693
10.46444	198.316	6.175293
10.4694	200.482	6.24365
10.4759	200.372	6.31201
10.4825	202.313	6.38037
10.4871	211.897	6.44873
10.49304	223.034	6.51709
10.4984	228.615	6.58545
10.50261	236.486	6.65381
10.5101	241.192	6.722168
10.5156	242.97	6.79053
10.5216	241.078	6.85889
10.5273	241.6644	6.92725
10.5335	239.758	6.99561
10.5381	241.203	7.06396
10.5439	251.038	7.13232
10.55	258.896	7.20068
10.5549	265.877	7.269043
10.5616	275.039	7.3374
10.5672	281.489	7.40576
10.5722	283.883	7.47412
10.5784	284.477	7.54248
10.584	284.873	7.61084
10.5895	280.605	7.6792
10.5954	278.968	7.74756
10.60041	289.327	7.815918
10.6057	294.174	7.88428
10.6123	300.744	7.95264
10.61672	310.919	8.021
10.6247	317.783	8.08936
10.62849	325.28	8.15771
10.6352	326.142	8.22607
10.64093	325.841	8.29443
10.6466	321.7	8.362793
10.6524	321.366	8.43115
10.6588	325.803	8.49951
10.6642	329.376	8.56787
10.669	335.13	8.63623
10.6753	345.248	8.70459
10.6808	353.649	8.77295
10.6865	360.97	8.84131
10.69212	367.616	8.909668
10.6978	367.1384	8.97803
10.703	366.506	9.04639
10.7086	366.825	9.11475
10.7146	366.31	9.18311
10.7206	366.421	9.25146
10.72696	370.256	9.31982
10.7304	377.349	9.38818
10.7383	387.225	9.456543
10.7438	400.028	9.5249
10.7486	403.395	9.59326
10.7546	407.016	9.66162
10.7594	409.139	9.72998
10.7666	409.144	9.79834
10.7721	406.415	9.8667
10.7769	404.502	9.93506
10.7827	405.313	10.0034
10.789	410.085	10.0718
10.7948	421.128	10.1401
10.8002	430.651	10.2085
10.8057	437.633	10.2769
10.8117	443.8728	10.3452
10.8171	449.279	10.4136
10.8227	450.074	10.4819
10.8292	447.878	10.5503
10.8341	446.03	10.6187
10.8406	444.104	10.687
10.8451	446.806	10.7554
10.8517	454.189	10.82373
10.8571	464.221	10.89209
10.8627	470.337	10.9604
10.8669	480.484	11.0288
10.874	489.107	11.0972
10.8799	489.991	11.1655
10.886	489.256	11.2339
10.8927	489.503	11.3022
10.89712	483.798	11.3706
10.9022	484.791	11.439
10.9077	489.025	11.5073
10.9128	496.591	11.5757
10.9193	499.7388	11.644
10.9255	512.865	11.7124
10.9311	526.265	11.7808
10.9362	526.613	11.8491
10.9424	528.507	11.91748
10.94744	529.1676	11.98584
10.9545	524.431	12.0542
10.9588	523.979	12.1226
10.966	524.242	12.1909
10.9715	526.446	12.2593
10.977	531.537	12.3276
10.9823	545.782	12.396
10.9881	556.21	12.4644
10.9935	561.282	12.5327
10.999	566.836	12.6011
11.00556	568.675	12.6694
11.0112	564.489	12.7378
11.0162	561.125	12.8062
11.0217	562.34	12.8745
11.0277	560.156	12.9429
11.0336	563.9259	13.01123
11.0391	576.786	13.07959
11.0448	588.082	13.1479
11.0517	593.964	13.2163
11.0559	603.071	13.2847
11.0625	605.502	13.353
11.0682	604.567	13.4214
11.0731	600.724	13.4897
11.0789	598.34	13.5581
11.08401	595.469	13.6265
11.0905	597.67	13.6948
11.0958	608.499	13.7632
11.1013	616.402	13.8315
11.1074	624.8	13.8999
11.1141	636.414	13.9683
11.1191	640.955	14.0366
11.1246	640.613	14.10498
11.1306	641.905	14.17334
11.1355	636.294	14.2417
11.1417	630.943	14.3101
11.1477	632.266	14.3784
11.1544	640.606	14.4468
11.1583	647.028	14.5151
11.1645	655.206	14.5835
11.171	665.8595	14.6519
11.1759	674.738	14.7202
11.1813	678.605	14.7886
11.1876	678.293	14.8569
11.1928	674.1991	14.9253
11.1977	670.749	14.9937
11.2049	669.937	15.062
11.21	673.469	15.1304
11.2162	676.454	15.19873
11.2219	684.736	15.26709
11.2277	697.359	15.3354
11.2331	705.846	15.4038
11.2379	712.869	15.4722
11.2426	715.508	15.5405
11.2494	712.772	15.6089
11.2558	707.259	15.6772
11.2613	707.398	15.7456
11.2665	706.426	15.814
11.2731	708.083	15.8823
11.278	713.39	15.9507
11.2846	722.769	16.019
11.2896	735.986	16.0874
11.2958	744.353	16.1558
11.3011	747.908	16.2241
11.3062	747.141	16.29248
11.3124	743.665	16.36084
11.3184	745.606	16.4292
11.3236	738.461	16.4976
11.32937	741.43	16.5659
11.3357	743.883	16.6343
11.3412	750.446	16.7026
11.3467	762.5885	16.771
11.3512	771.2865	16.8394
11.359	778.1026	16.9077
11.3642	779.714	16.9761
11.36987	781.986	17.0444
11.3752	779.375	17.1128
11.3812	775.42	17.1812
11.3858	773.321	17.2495
11.3928	774.513	17.3179
11.3979	778.876	17.38623
11.4041	789.587	17.45459
11.4091	798.332	17.5229
11.4148	805.689	17.5913
11.4203	810.269	17.6597
11.4258	815.62	17.728
11.4323	812.561	17.7964
11.4374	810.381	17.8647
11.4443	808.353	17.9331
11.4496	803.788	18.0015
11.45572	807.859	18.0698
11.4606	815.093	18.1382
11.4668	824.3717	18.2065
11.4722	830.789	18.2749
11.4778	838.252	18.3433
11.4835	845.483	18.4116
11.4889	844.352	18.47998
11.4942	842.344	18.54834
11.4999	841.243	18.6167
11.5062	835.488	18.6851
11.51183	836.697	18.7534
11.5184	842.133	18.8218
11.5226	848.922	18.8901
11.5289	854.282	18.9585
11.5344	864.86	19.0269
11.541	874.202	19.0952
11.545	873.036	19.1636
11.55241	874.294	19.2319
11.5577	873.4068	19.3003
11.5625	866.705	19.3687
11.5681	866.484	19.437
11.5747	869.437	19.5054
11.5799	869.998	19.57373
11.58579	876.3891	19.64209
11.5921	888.018	19.7104
11.5972	898.846	19.7788
11.603	901.143	19.8472
11.60903	902.851	19.9155
11.6152	902.376	19.9839
11.6174	891.181	20.0132

Data Header:			0.254_solid_dimension_typei_4545_r0			Time:	40.0181	s	4/14/2019 4:42:14 AM
Data Acquisition:	Timed
Station Name:	ft40.cfg
Test File Name:	monotonic_0.2540_typei_solid_4545_dimension.tst
Displacement	Force	Running Time
mm	N	s
11.6179	901.846	20.0229
11.6242	907.404	20.0913
11.6287	911.67	20.1597
11.6354	916.376	20.228
11.6397	911.97	20.2964
11.6459	908.976	20.3647
11.652	903.614	20.4331
11.65723	903.0542	20.5015
11.6633	909.449	20.5698
11.6687	915.6889	20.6382
11.6744	920.103	20.7065
11.6794	928.151	20.7749
11.6857	938.003	20.8433
11.6909	940.187	20.9116
11.6969	938.886	20.97998
11.7036	938.532	21.04834
11.7082	932.62	21.1167
11.7144	930.717	21.1851
11.7207	932.776	21.2534
11.7266	938.134	21.3218
11.7322	941.052	21.3901
11.7368	949.055	21.4585
11.7428	959.649	21.5269
11.7491	962.803	21.5952
11.7542	965.21	21.6636
11.7599	964.792	21.7319
11.7641	959.841	21.8003
11.77112	956.349	21.8687
11.7772	957.445	21.937
11.78262	959.108	22.0054
11.7883	957.956	22.07373
11.794	967.749	22.14209
11.7994	979.93	22.2104
11.8055	983.922	22.2788
11.8123	988.112	22.3472
11.81771	989.429	22.4155
11.82181	985.176	22.4839
11.8289	982.829	22.5522
11.8337	981.39	22.6206
11.83916	978.626	22.689
11.844	977.081	22.7573
11.8514	986.424	22.8257
11.8562	996.52	22.894
11.8623	999.071	22.9624
11.8683	1006.16	23.0308
11.87274	1011.32	23.0991
11.8794	1007.62	23.16748
11.8848	1005.3	23.23584
11.8903	1002.88	23.3042
11.8964	997.644	23.3726
11.9028	995.099	23.4409
11.9081	1002.83	23.5093
11.9131	1010.22	23.5776
11.92	1015.03	23.646
11.9253	1023.65	23.7144
11.9307	1027.29	23.7827
11.9359	1027.14	23.8511
11.9421	1026.78	23.9194
11.9486	1024.8	23.9878
11.954	1015.91	24.0562
11.9587	1011.98	24.1245
11.9644	1017.96	24.1929
11.9716	1022.51	24.26123
11.9752	1027.072	24.32959
11.9816	1036.5	24.3979
11.9876	1042.29	24.4663
11.99339	1045.33	24.5347
11.9992	1045.08	24.603
12.0046	1041.29	24.6714
12.0113	1033.54	24.7397
12.0156	1030.99	24.8081
12.0217	1032.94	24.8765
12.0274	1033.97	24.9448
12.034	1037.15	25.0132
12.0382	1046.34	25.0815
12.0447	1053.09	25.1499
12.05089	1057.53	25.2183
12.0559	1059.71	25.2866
12.061	1055.45	25.35498
12.0673	1049.17	25.42334
12.0721	1047.32	25.4917
12.0785	1045.98	25.5601
12.0847	1045.25	25.6284
12.08996	1047.31	25.6968
12.0949	1054.819	25.7651
12.1017	1061.71	25.8335
12.1071	1067.55	25.9019
12.1136	1071.99	25.9702
12.1186	1069.34	26.0386
12.1246	1064.71	26.1069
12.1289	1062.94	26.1753
12.13539	1059.15	26.2437
12.1421	1054.807	26.312
12.14674	1057.35	26.3804
12.15301	1060.57	26.44873
12.1588	1068.24	26.51709
12.1642	1075.16	26.5854
12.16944	1079.377	26.6538
12.175	1077.67	26.7222
12.1808	1075.646	26.7905
12.1874	1075.41	26.8589
12.1927	1069.8	26.9272
12.1987	1066.478	26.9956
12.2038	1064.4	27.064
12.2097	1065.33	27.1323
12.215	1072.39	27.2007
12.2221	1080.2	27.269
12.2271	1083.088	27.3374
12.2327	1084.95	27.4058
12.2375	1088.18	27.4741
12.2441	1084.92	27.54248
12.24931	1079.76	27.61084
12.2552	1074.93	27.6792
12.2621	1072.01	27.7476
12.2662	1071.35	27.8159
12.2716	1076.28	27.8843
12.2775	1081.183	27.9526
12.2838	1083.598	28.021
12.2886	1090.54	28.0894
12.2947	1094.793	28.1577
12.3018	1091.88	28.2261
12.3068	1088.63	28.2944
12.312	1084.58	28.3628
12.3185	1078.36	28.4312
12.3238	1077.4	28.4995
12.3284	1079.24	28.5679
12.3348	1081.71	28.63623
12.3404	1085.63	28.70459
12.3467	1091.88	28.7729
12.3526	1099.106	28.8413
12.3582	1098.44	28.9097
12.3632	1096.1	28.978
12.3692	1094.61	29.0464
12.3752	1085.226	29.1147
12.38125	1082.77	29.1831
12.386	1083.38	29.2515
12.3922	1082.08	29.3198
12.39841	1084.52	29.3882
12.4033	1092.67	29.4565
12.4088	1099.91	29.5249
12.4151	1099.51	29.5933
12.4202	1100.95	29.6616
12.4272	1100.32	29.72998
12.4318	1091.21	29.79834
12.4385	1089.48	29.8667
12.4433	1086.66	29.9351
12.4506	1080.99	30.0034
12.4546	1082.29	30.0718
12.4608	1092.15	30.1401
12.4661	1098.83	30.2085
12.4714	1099.547	30.2769
12.4776	1104.05	30.3452
12.4833	1103.05	30.4136
12.4892	1097.76	30.4819
12.4948	1095.28	30.5503
12.5	1091.03	30.6187
12.5061	1081	30.687
12.5115	1085.23	30.7554
12.5173	1091.39	30.82373
12.5238	1094.56	30.89209
12.5289	1098.36	30.9604
12.5357	1104.79	31.0288
12.5398	1105.37	31.0972
12.5457	1102.38	31.1655
12.5511	1100.19	31.2339
12.5572	1093.63	31.3022
12.5627	1084.22	31.3706
12.5685	1084.94	31.439
12.574	1090.74	31.5073
12.5796	1091.4	31.5757
12.5854	1098.25	31.644
12.5915	1104.02	31.7124
12.5972	1107.58	31.7808
12.6026	1107.72	31.8491
12.60843	1104.76	31.91748
12.6141	1098.6	31.98584
12.61856	1088.47	32.0542
12.6249	1086.68	32.1226
12.6306	1088.92	32.1909
12.6375	1089.17	32.2593
12.6418	1092.89	32.3276
12.6486	1099.748	32.396
12.653	1104.16	32.4644
12.6603	1106.88	32.5327
12.6662	1107.31	32.6011
12.6707	1100.87	32.6694
12.6761	1092.55	32.7378
12.6822	1092.14	32.8062
12.6884	1087.75	32.8745
12.6935	1086.58	32.9429
12.6994	1091.84	33.01123
12.7054	1096.06	33.07959
12.7109	1103.562	33.1479
12.7172	1107.17	33.2163
12.7224	1107.95	33.2847
12.7283	1101.97	33.353
12.7337	1097.94	33.4214
12.7401	1097.57	33.4897
12.7445	1087.32	33.5581
12.7512	1088.21	33.6265
12.7573	1089.05	33.6948
12.7628	1090.25	33.7632
12.7683	1099.51	33.8315
12.7737	1104.83	33.8999
12.7786	1105.12	33.9683
12.784	1103.88	34.0366
12.7911	1102.36	34.10498
12.7965	1099.22	34.17334
12.8018	1092.29	34.2417
12.8075	1086.82	34.3101
12.8136	1087.03	34.3784
12.8187	1089.84	34.4468
12.8238	1095.494	34.5151
12.8306	1100.049	34.5835
12.8361	1103.05	34.6519
12.8407	1103.816	34.7202
12.8472	1105.995	34.7886
12.85331	1101.04	34.8569
12.85866	1094.31	34.9253
12.8649	1088.99	34.9937
12.8702	1086.64	35.062
12.8765	1089.27	35.1304
12.8825	1092.61	35.19873
12.88716	1095.69	35.26709
12.8929	1098.97	35.3354
12.8988	1104.05	35.4038
12.90427	1109.47	35.4722
12.9104	1103.61	35.5405
12.9166	1097.99	35.6089
12.9211	1093.73	35.6772
12.9278	1085.69	35.7456
12.933	1087.766	35.814
12.9383	1090.75	35.8823
12.9444	1090.67	35.9507
12.9507	1094.74	36.019
12.9555	1102.57	36.0874
12.9617	1105.42	36.1558
12.9667	1100.75	36.2241
12.9729	1101.21	36.29248
12.9798	1095.551	36.36084
12.9837	1088.11	36.4292
12.98978	1088.46	36.4976
12.9954	1087.54	36.5659
13.0021	1085.96	36.6343
13.0072	1088.15	36.7026
13.0124	1098.59	36.771
13.0188	1102.259	36.8394
13.0243	1101.25	36.9077
13.0295	1102.455	36.9761
13.0349	1099.481	37.0444
13.0416	1091.34	37.1128
13.0472	1089.53	37.1812
13.0528	1088.34	37.2495
13.0593	1083.66	37.3179
13.0633	1085.93	37.38623
13.0698	1096.6	37.45459
13.0745	1099.28	37.5229
13.0808	1100.85	37.5913
13.0867	1103.61	37.6597
13.0923	1101.7	37.728
13.0982	1096.9	37.7964
13.1036	1093	37.8647
13.1104	1088.54	37.9331
13.1155	1082.31	38.0015
13.1214	1083.99	38.0698
13.1267	1091.07	38.1382
13.133	1094.71	38.2065
13.1376	1097.889	38.2749
13.1434	1103.88	38.3433
13.1493	1103.182	38.4116
13.1559	1097.85	38.47998
13.1607	1095.36	38.54834
13.1665	1089.9	38.6167
13.1727	1082.51	38.6851
13.1785	1083.68	38.7534
13.1831	1089.3	38.8218
13.1897	1090.23	38.8901
13.1951	1096.64	38.9585
13.2007	1100.5	39.0269
13.2065	1103.25	39.0952
13.2116	1100.39	39.1636
13.2187	1099.37	39.2319
13.2235	1090.79	39.3003
13.2289	1085.07	39.3687
13.2352	1083.4	39.437
13.2415	1084.618	39.5054
13.2466	1086.09	39.57373
13.2512	1092.262	39.64209
13.2575	1097.26	39.7104
13.2628	1101.64	39.7788
13.2691	1102.61	39.8472
13.2739	1100.46	39.9155
13.27984	1092.86	39.9839
13.2834	1090.178	40.0132

Data Header:			0.254_solid_dimension_typei_4545_r0			Time:	60.0198	s	4/14/2019 4:42:34 AM
Data Acquisition:	Timed
Station Name:	ft40.cfg
Test File Name:	monotonic_0.2540_typei_solid_4545_dimension.tst
Displacement	Force	Running Time
mm	N	s
13.2842	1096.48	40.0229
13.2886	1099.28	40.0913
13.2953	1103.478	40.1597
13.2996	1097.57	40.228
13.3059	1095.47	40.2964
13.3125	1090.59	40.3647
13.3181	1083.34	40.4331
13.3239	1078.798	40.5015
13.33	1084.24	40.5698
13.3352	1089.16	40.6382
13.3412	1091.03	40.7065
13.3463	1098.04	40.7749
13.3525	1101.15	40.8433
13.35846	1099.98	40.9116
13.3632	1098.71	40.97998
13.3696	1094.06	41.04834
13.3744	1086.04	41.1167
13.3811	1079.88	41.1851
13.3866	1083.46	41.2534
13.3923	1085.44	41.3218
13.397	1088.64	41.3901
13.4035	1094.18	41.4585
13.4102	1100.36	41.5269
13.4151	1099.35	41.5952
13.4204	1100.47	41.6636
13.4253	1095.91	41.7319
13.4313	1089.04	41.8003
13.43754	1081.3	41.8687
13.4436	1083.59	41.937
13.4491	1082.82	42.0054
13.4543	1083.81	42.07373
13.4597	1091.03	42.14209
13.4666	1095.8	42.2104
13.4708	1100.22	42.2788
13.4771	1100.72	42.3472
13.4835	1097.74	42.4155
13.4879	1090.26	42.4839
13.4939	1084.218	42.5522
13.5006	1084.64	42.6206
13.5056	1082.23	42.689
13.5118	1082.01	42.7573
13.5176	1086.65	42.8257
13.52192	1091.11	42.894
13.5293	1097.274	42.9624
13.5343	1099.55	43.0308
13.5406	1098.04	43.0991
13.5455	1092.87	43.16748
13.5517	1088.37	43.23584
13.5566	1086.24	43.3042
13.5626	1080.95	43.3726
13.5676	1081.054	43.4409
13.57483	1082.6	43.5093
13.5807	1087.897	43.5776
13.5851	1094.42	43.646
13.59211	1098.76	43.7144
13.598	1097.46	43.7827
13.6023	1095.04	43.8511
13.6081	1094.04	43.9194
13.6149	1088.16	43.9878
13.6192	1081.58	44.0562
13.6251	1081.19	44.1245
13.6308	1080.19	44.1929
13.636	1085.82	44.26123
13.6425	1090.98	44.32959
13.6485	1094.25	44.3979
13.6536	1095.8	44.4663
13.6595	1097.49	44.5347
13.6659	1097	44.603
13.67024	1092.17	44.6714
13.6767	1084.77	44.7397
13.6825	1081.45	44.8081
13.6873	1078.27	44.8765
13.6946	1082.68	44.9448
13.69936	1087.83	45.0132
13.7053	1088.67	45.0815
13.7111	1091.36	45.1499
13.71633	1098.06	45.2183
13.7219	1098.02	45.2866
13.7285	1091.82	45.35498
13.7328	1088.94	45.42334
13.7397	1083.261	45.4917
13.745	1079.33	45.5601
13.7509	1079.64	45.6284
13.7555	1084.38	45.6968
13.7616	1084.76	45.7651
13.7676	1087.88	45.8335
13.7733	1096.58	45.9019
13.778	1097.55	45.9702
13.7844	1093.63	46.0386
13.7902	1091.96	46.1069
13.7961	1086.44	46.1753
13.8019	1080.42	46.2437
13.80789	1082.56	46.312
13.8131	1081.07	46.3804
13.8178	1081.24	46.44873
13.8254	1085.57	46.51709
13.8306	1094.6	46.5854
13.8363	1095.76	46.6538
[...]
14.4279	1077.135	53.7632
14.4336	1082.19	53.8315
14.4403	1091.44	53.8999
14.4455	1092.55	53.9683
14.4505	1088.69	54.0366
14.4574	1088.2	54.10498
14.46153	1083.437	54.17334
14.46832	1077.27	54.2417
14.4734	1075.45	54.3101
14.4799	1075.41	54.3784
14.48522	1074.77	54.4468
14.4912	1078.55	54.5151
14.4972	1088.04	54.5835
14.50174	1089.84	54.6519
14.5075	1088.88	54.7202
14.5139	1091.35	54.7886
14.5191	1086.34	54.8569
14.5251	1079.55	54.9253
14.5304	1076.458	54.9937
14.5361	1073.82	55.062
14.5424	1071.74	55.1304
14.5473	1075.74	55.19873
14.55407	1084.25	55.26709
14.5583	1087.07	55.3354
14.56582	1087.83	55.4038
14.5715	1090.22	55.4722
14.5758	1089.468	55.5405
14.5823	1085.33	55.6089
14.5878	1079.24	55.6772
14.5931	1074.34	55.7456
14.5987	1070.79	55.814
14.6046	1073.55	55.8823
14.6106	1079.19	55.9507
14.6168	1083.37	56.019
14.6229	1086.99	56.0874
14.6278	1090.23	56.1558
14.6336	1090.75	56.2241
14.6388	1086.76	56.29248
14.6441	1082.4	56.36084
14.6503	1077.4	56.4292
14.656	1071.16	56.4976
14.66248	1074.52	56.5659
14.6682	1075.7	56.6343
14.6738	1079.43	56.7026
14.6785	1084.59	56.771
14.6844	1087.77	56.8394
14.6908	1091.229	56.9077
14.6964	1088.557	56.9761
14.7015	1085.26	57.0444
14.7067	1076.04	57.1128
14.71389	1072.6	57.1812
14.7187	1072.47	57.2495
14.7247	1072.85	57.3179
14.7307	1075.472	57.38623
14.7357	1080.02	57.45459
14.7415	1082.951	57.5229
14.7472	1089.15	57.5913
14.7529	1091.19	57.6597
14.759	1086.269	57.728
14.7651	1079.68	57.7964
14.771	1076.29	57.8647
14.776	1072.47	57.9331
14.7821	1071.8	58.0015
14.7874	1074.12	58.0698
14.7935	1077.283	58.1382
14.7991	1081.766	58.2065
14.80464	1088.67	58.2749
14.8094	1091.88	58.3433
14.816	1086.79	58.4116
14.82151	1082.37	58.47998
14.8267	1081.8	58.54834
14.8324	1076.17	58.6167
14.8382	1071.91	58.6851
14.844	1072.01	58.7534
14.85	1072.95	58.8218
14.8554	1078.3	58.8901
14.8615	1085.27	58.9585
14.8673	1089.94	59.0269
14.8732	1087.97	59.0952
14.8782	1085.374	59.1636
14.8838	1084.71	59.2319
14.8899	1077.01	59.3003
14.8959	1072.11	59.3687
14.9012	1071.59	59.437
14.9071	1070.85	59.5054
14.9116	1074.55	59.57373
14.9173	1082.016	59.64209
14.9235	1085.97	59.7104
14.9304	1085.24	59.7788
14.9347	1086.983	59.8472
14.9412	1087.24	59.9155
14.9464	1079.9	59.9839
14.949	1075.39	60.0132

Data Header:			0.254_solid_dimension_typei_4545_r0			Time:	69.8521	s	4/14/2019 4:42:44 AM
Data Acquisition:	Timed
Station Name:	ft40.cfg
Test File Name:	monotonic_0.2540_typei_solid_4545_dimension.tst
Displacement	Force	Running Time
mm	N	s
14.94955	1083.88	60.0229
14.9532	1068.11	60.062
14.9563	1086.68	60.1011
14.9599	1079.46	60.1401
14.964	1071.18	60.1792
14.9658	1089.32	60.2183
14.9698	1072.38	60.2573
14.9728	1080.13	60.2964
14.97517	1082.53	60.3354
14.9796	1072.68	60.3745
14.9824	1083.65	60.4136
14.9865	1078.41	60.4526
14.9878	1075.77	60.4917
14.9921	1088.3	60.5308
14.9948	1071.77	60.5698
14.9989	1081.73	60.6089
15.0022	1086.29	60.6479
15.0053	1071.15	60.687
15.00818	1090.26	60.7261
15.0113	1078.14	60.7651
15.0141	1074.8	60.8042
15.0176	1087.32	60.8433
15.0209	1073.29	60.8823
15.0249	1080.94	60.9214
15.0285	1084.34	60.9604
15.0313	1070.06	60.9995
15.0348	1085.22	61.0386
15.03735	1076.07	61.0776
15.0407	1072.36	61.1167
15.0443	1086.554	61.1558
15.0485	1070.07	61.1948
15.0511	1079.88	61.2339
15.0535	1083.63	61.2729
15.0583	1068.13	61.312
15.0601	1084.89	61.3511
15.0648	1080.03	61.3901
15.0681	1069.78	61.4292
15.0699	1085.67	61.4683
15.0742	1073.79	61.5073
15.0767	1079.95	61.5464
15.0796	1084.88	61.5854
15.0838	1072.72	61.6245
15.0873	1086.12	61.6636
15.0903	1074.89	61.7026
15.0936	1075.86	61.7417
15.0956	1086.57	61.7808
15.09874	1072.67	61.8198
15.1024	1081.3	61.8589
15.1061	1084.704	61.8979
15.1102	1070.14	61.937
15.1124	1086.96	61.9761
15.1159	1079.65	62.0151
15.1179	1072.66	62.0542
15.1222	1088.18	62.0933
15.1258	1070.25	62.1323
15.1287	1080.48	62.1714
15.1317	1082.03	62.2104
15.1364	1070.64	62.2495
15.138	1083.42	62.2886
15.1417	1075.5	62.3276
15.1452	1071.55	62.3667
15.1473	1088.32	62.4058
15.1509	1068.26	62.4448
15.1554	1079.6	62.4839
15.1591	1084.87	62.5229
15.1614	1065.12	62.562
15.1644	1084.01	62.6011
15.16818	1075.71	62.6401
15.1711	1070.68	62.6792
15.1745	1086.4	62.7183
15.1767	1072.28	62.7573
15.1809	1077.46	62.7964
15.1849	1082.52	62.8354
15.18776	1071.39	62.8745
15.19035	1086.78	62.9136
15.1946	1078.415	62.9526
15.1975	1074.82	62.9917
15.2001	1088.05	63.0308
15.2035	1067.92	63.0698
15.2075	1081.68	63.1089
15.2101	1082.38	63.1479
15.2135	1070.23	63.187
15.2164	1084.875	63.2261
15.22	1075.06	63.2651
15.2224	1071.344	63.3042
15.2265	1084.57	63.3433
15.2298	1069.72	63.3823
15.2331	1077.84	63.4214
15.23609	1080.1	63.4604
15.2401	1066.441	63.4995
15.2435	1085.67	63.5386
15.2465	1071.81	63.5776
15.249	1071.36	63.6167
15.2535	1086.42	63.6558
15.2567	1068.16	63.6948
15.2583	1076.36	63.7339
15.2617	1083.48	63.7729
15.2649	1067.23	63.812
15.26882	1082.47	63.8511
15.2723	1077.67	63.8901
15.276	1068.75	63.9292
15.2781	1085.78	63.9683
15.2816	1069.59	64.0073
15.2849	1078.38	64.0464
15.2882	1080.05	64.0854
15.2923	1069.23	64.1245
15.2948	1085.68	64.1636
15.2978	1075.4	64.2026
15.3024	1073.24	64.2417
15.3049	1086.772	64.2808
15.3086	1070.25	64.3198
15.3115	1078.038	64.3589
15.3144	1082.94	64.3979
15.3171	1065.62	64.437
15.32068	1085.08	64.4761
15.324	1073.53	64.5151
15.3281	1069.32	64.5542
15.3306	1084.24	64.5933
15.3342	1067.81	64.6323
15.3379	1077.05	64.6714
15.3406	1077.03	64.7104
15.3429	1065.5	64.7495
15.3468	1080.57	64.7886
15.3508	1070.7	64.8276
15.3532	1067.61	64.8667
15.35712	1084.4	64.9058
15.3603	1065.6	64.9448
15.3634	1074.26	64.9839
15.3662	1079.92	65.0229
15.3696	1063.64	65.062
15.3726	1080.44	65.1011
15.3765	1074.24	65.1401
15.3792	1069.15	65.1792
15.38312	1083.5	65.2183
15.3857	1069.998	65.2573
15.3892	1074.845	65.2964
15.3922	1077.99	65.3354
15.3951	1063.626	65.3745
15.3987	1081.59	65.4136
15.4018	1069.5	65.4526
15.4053	1069.15	65.4917
15.4083	1081.44	65.5308
15.4121	1062.11	65.5698
15.4156	1072.68	65.6089
15.4179	1074.05	65.6479
15.4231	1058.91	65.687
15.4249	1073.34	65.7261
15.4352	53.0087	65.7651
15.4356	-44.448	65.8042
15.4383	-28.4943	65.8433
15.4399	-51.74297	65.8823
15.4427	-33.8526	65.9214
15.4455	-37.1345	65.9604
15.4486	-50.6576	65.9995
15.4527	-27.7794	66.0386
15.4549	-44.9244	66.0776
15.4587	-43.50309	66.1167
15.461	-28.42277	66.1558
15.4646	-49.8955	66.1948
15.4682	-36.9339	66.2339
15.4715	-34.5246	66.2729
15.4744	-50.4133	66.312
15.478	-31.8965	66.3511
15.4808	-40.77322	66.3901
15.4833	-42.3479	66.4292
15.4878	-29.3039	66.4683
15.4907	-46.5285	66.5073
15.4937	-35.793	66.5464
15.497	-37.46933	66.5854
15.5002	-47.2068	66.6245
15.5034	-31.6695	66.6636
15.5066	-39.94894	66.7026
15.5101	-44.4498	66.7417
15.5133	-29.9972	66.7808
15.5166	-48.3211	66.8198
15.5204	-38.1035	66.8589
15.5232	-34.7382	66.8979
15.5261	-48.9469	66.937
15.5294	-33.0579	66.9761
15.5329	-44.0701	67.0151
15.536	-43.7431	67.0542
15.5384	-34.0804	67.0933
15.5436	-47.7997	67.1323
15.5453	-38.18679	67.1714
15.5497	-37.8153	67.2104
15.5517	-50.838	67.2495
15.5552	-30.5832	67.2886
15.5592	-42.5749	67.3276
15.56209	-45.5472	67.3667
15.5653	-29.1213	67.4058
15.5692	-48.5627	67.4448
15.571	-37.6258	67.4839
15.5748	-34.0051	67.5229
15.57811	-47.6315	67.562
15.5818	-33.926	67.6011
15.584	-39.0948	67.6401
15.5889	-44.34568	67.6792
15.5912	-30.953	67.7183
15.5939	-45.2001	67.7573
15.5979	-38.6481	67.7964
15.6022	-35.0487	67.8354
15.6043	-49.1027	67.8745
15.608	-31.6394	67.9136
15.6104	-44.6078	67.9526
15.6139	-45.36388	67.9917
15.6182	-33.1175	68.0308
15.6206	-48.5862	68.0698
15.6233	-41.89045	68.1089
15.6276	-36.4029	68.1479
15.6306	-49.1899	68.187
15.6334	-35.9495	68.2261
15.6372	-42.0889	68.2651
15.6398	-46.9312	68.3042
15.6431	-34.4963	68.3433
15.6468	-49.8493	68.3823
15.649	-36.234	68.4214
15.6544	-39.8849	68.4604
15.6565	-48.7742	68.4995
15.6597	-33.1724	68.5386
15.6631	-42.5705	68.5776
15.6667	-44.3458	68.6167
15.6703	-31.1643	68.6558
15.6731	-47.3955	68.6948
15.6752	-39.2985	68.7339
15.6789	-32.6202	68.7729
15.6827	-47.9986	68.812
15.6846	-33.62207	68.8511
15.6887	-40.9083	68.8901
15.6929	-43.0047	68.9292
15.6957	-33.3473	68.9683
15.6981	-45.6325	69.0073
15.7023	-39.114	69.0464
15.7052	-36.7092	69.0854
15.7082	-48.1416	69.1245
15.7122	-33.91671	69.1636
15.7157	-42.5317	69.2026
15.7195	-47.0543	69.2417
15.7221	-31.8103	69.2808
15.7251	-47.2126	69.3198
15.7273	-39.4538	69.3589
15.7309	-37.2146	69.3979
15.734	-46.9085	69.437
15.7379	-36.6259	69.4761
15.7417	-43.2089	69.5151
15.7437	-43.9732	69.5542
15.7477	-34.9918	69.5933
15.7508	-48.5308	69.6323
15.7549	-40.1031	69.6714
15.7584	-35.8127	69.7104
15.7605	-49.2595	69.7495
15.7646	-31.7752	69.7886
15.7683	-45.5407	69.8276
15.7687	-32.835	69.8472