File: data/processed_data_files/tensile/0.254_solid_dimension_typeiv_090_r(8).dat
MTS793|BTW|ENU|1|2|.|/|:|1|0|0|A

Data Header:			0.254_solid_dimension_typeiv_090_r0			Time:	20.0176	s	4/14/2019 2:01:57 AM
Data Acquisition:	Timed
Station Name:	ft40.cfg
Test File Name:	monotonic_0.2540_typeiv_solid_090_dimension.tst
Displacement	Force	Running Time
mm	N	s
-37.1258	-108.736	0.0227051
-37.1254	-108.404	0.0910645
-37.1198	-104.842	0.159424
-37.1142	-103.164	0.2277832
-37.1085	-99.0159	0.296143
-37.1012	-97.5433	0.364502
-37.0963	-95.7029	0.432861
-37.0915	-90.6392	0.5012207
-37.0849	-88.6437	0.56958
-37.0799	-83.7642	0.637939
-37.0741	-73.59684	0.706299
-37.0684	-71.02327	0.7746582
-37.0626	-68.1644	0.843018
-37.0562	-64.7619	0.911377
-37.0516	-62.3859	0.979736
-37.04504	-61.394	1.0481
-37.0402	-59.3587	1.11646
-37.034	-55.4919	1.18481
-37.0285	-53.9704	1.25317
-37.02285	-48.37	1.32153
-37.017	-39.125	1.38989
-37.01165	-35.1378	1.458252
-37.0068	-32.9183	1.52661
-37.0005	-28.4232	1.59497
-36.9945	-26.6403	1.66333
-36.9886	-23.6872	1.73169
-36.9838	-22.9177	1.80005
-36.9779	-21.63843	1.86841
-36.9722	-20.255	1.93677
-36.9671	-13.2804	2.005127
-36.96003	-5.8165	2.07349
-36.9552	-2.15879	2.14185
-36.9483	2.19487	2.21021
-36.94363	6.74339	2.27856
-36.9367	9.76698	2.34692
-36.9328	11.8011	2.41528
-36.9261	11.3861	2.48364
-36.9205	12.9129	2.552002
-36.9148	14.8302	2.62036
-36.9089	22.2929	2.68872
-36.9032	26.7736	2.75708
-36.8978	31.1569	2.82544
-36.892	38.99786	2.8938
-36.8864	40.8753	2.96216
-36.8805	46.2016	3.03052
-36.8746	47.8267	3.098877
-36.86985	48.6916	3.16724
-36.8647	47.5112	3.2356
-36.8586	51.3983	3.30396
-36.8525	58.8899	3.37231
-36.84594	60.1578	3.44067
-36.8409	66.64875	3.50903
-36.8347	72.0454	3.57739
-36.8304	74.4913	3.645752
-36.824	81.327	3.71411
-36.8164	85.2979	3.78247
-36.8122	84.77829	3.85083
-36.8063	83.4952	3.91919
-36.7997	86.0426	3.98755
-36.7946	90.67955	4.05591
-36.789	93.5216	4.12427
-36.7847	100.4735	4.192627
-36.7772	105.7914	4.26099
-36.7728	107.4	4.32935
-36.76672	116.125	4.39771
-36.7609	118.621	4.46606
-36.7551	116.53	4.53442
-36.7505	120.434	4.60278
-36.7437	125.406	4.67114
-36.739	125.129	4.739502
-36.7337	127.7459	4.80786
-36.7273	134.776	4.87622
-36.7209	138.025	4.94458
-36.7162	142.4409	5.01294
-36.70932	150.02	5.0813
-36.7043	153.501	5.14966
-36.69804	153.111	5.21802
-36.6922	153.182	5.286377
-36.6872	159.488	5.35474
-36.6805	159.789	5.4231
-36.6766	160.132	5.49146
-36.6705	166.539	5.55981
-36.6649	169.907	5.62817
-36.6585	175.782	5.69653
-36.6536	182.813	5.76489
-36.6463	186.149	5.833252
-36.6415	185.833	5.90161
-36.6349	188.583	5.96997
-36.6302	194.8053	6.03833
-36.6243	193.9015	6.10669
-36.6183	196.232	6.17505
-36.6125	200.826	6.24341
-36.6074	202.531	6.31177
-36.6016	206.937	6.380127
-36.5962	213.972	6.44849
-36.5904	216.98	6.51685
-36.584	218.816	6.58521
-36.5786	224.915	6.65356
-36.573	229.9158	6.72192
-36.5675	229.216	6.79028
-36.562	229.468	6.85864
-36.5557	232.306	6.927002
-36.5504	233.249	6.99536
-36.5443	237.593	7.06372
-36.5388	244.078	7.13208
-36.5333	245.609	7.20044
-36.5268	250.326	7.2688
-36.5214	258.049	7.33716
-36.5168	261.167	7.40552
-36.5102	261.3468	7.473877
-36.504	262.546	7.54224
-36.4986	265.017	7.6106
-36.4942	266.81	7.67896
-36.488	269.929	7.74731
-36.4826	275.503	7.81567
-36.4768	273.909	7.88403
-36.4705	280.096	7.95239
-36.4652	289.1	8.020752
-36.4596	292.801	8.08911
-36.4532	293.505	8.15747
-36.4475	297.498	8.22583
-36.4423	296.339	8.29419
-36.4368	298.563	8.36255
-36.431	300.668	8.43091
-36.4249	304.903	8.49927
-36.4199	304.218	8.567627
-36.4138	311.997	8.63599
-36.408	320.119	8.70435
-36.4022	322.814	8.77271
-36.3965	323.893	8.84106
-36.392	326.544	8.90942
-36.3861	328.848	8.97778
-36.3791	329.5029	9.04614
-36.3726	331.829	9.114502
-36.3682	332.3	9.18286
-36.3626	333.025	9.25122
-36.3568	340.593	9.31958
-36.3506	346.009	9.38794
-36.3458	350.665	9.4563
-36.3396	352.884	9.52466
-36.3345	356.282	9.59302
-36.3275	360.166	9.661377
-36.3223	359.577	9.72974
-36.3168	358.9169	9.7981
-36.3124	359.003	9.86646
-36.3058	360.247	9.93481
-36.3003	367.173	10.0032
-36.2945	371.796	10.0715
-36.2879	376.362	10.1399
-36.2833	381.83	10.2083
-36.2774	381.008	10.2766
-36.2712	387.223	10.345
-36.2648	386.413	10.41333
-36.2606	387.325	10.4817
-36.2529	384.139	10.55
-36.2481	389.2114	10.6184
-36.242	394.755	10.6868
-36.2363	395.4043	10.7551
-36.23167	399.857	10.8235
-36.2256	405.262	10.8918
-36.2204	406.636	10.9602
-36.2138	411.451	11.0286
-36.2095	413.1503	11.0969
-36.2029	409.223	11.1653
-36.1974	410.148	11.2336
-36.1911	412.65	11.302
-36.1863	415.178	11.3704
-36.1803	414.948	11.4387
-36.1754	422.723	11.50708
-36.169	424.2627	11.5754
-36.1637	428.127	11.6438
-36.1575	431.67	11.7122
-36.1508	433.173	11.7805
-36.1464	430.4993	11.8489
-36.1411	430.283	11.9172
-36.1342	433.5741	11.9856
-36.1285	431.966	12.054
-36.1239	434.304	12.1223
-36.1187	438.792	12.1907
-36.1118	440.212	12.259
-36.10638	443.845	12.3274
-36.10146	448.521	12.3958
-36.094	450.036	12.4641
-36.09008	445.563	12.5325
-36.0838	448.297	12.60083
-36.0772	450.409	12.6692
-36.0725	447.056	12.7375
-36.0666	448.5271	12.8059
-36.0606	451.634	12.8743
-36.0553	452.381	12.9426
-36.0495	457.192	13.011
-36.04364	460.789	13.0793
-36.0382	460.567	13.1477
-36.032	457.333	13.2161
-36.0267	460.0408	13.2844
-36.0197	462.617	13.3528
-36.0139	456.736	13.4211
-36.0092	458.491	13.4895
-36.0039	459.151	13.5579
-35.9979	459.272	13.6262
-35.9928	462.055	13.69458
-35.987	466.333	13.7629
-35.9804	463.884	13.8313
-35.9753	464.659	13.8997
-35.9704	467.597	13.968
-35.9653	467.452	14.0364
-35.9579	463.543	14.1047
-35.95179	464.251	14.1731
-35.9475	462.41	14.2415
-35.94173	461.436	14.3098
-35.9356	464.837	14.3782
-35.9297	468.811	14.4465
-35.9249	464.799	14.5149
-35.9178	466.457	14.5833
-35.9122	472.429	14.6516
-35.9074	469.728	14.72
-35.9021	467.096	14.78833
-35.8958	466.322	14.8567
-35.8893	465.103	14.925
-35.8841	463.744	14.9934
-35.8785	464.675	15.0618
-35.874	464.861	15.1301
-35.8672	463.361	15.1985
-35.86116	463.438	15.2668
-35.8553	470.278	15.3352
-35.85	468.673	15.4036
-35.8442	466.176	15.4719
-35.83831	466.361	15.5403
-35.8328	464.32	15.6086
-35.8269	461.6944	15.677
-35.8208	460.723	15.7454
-35.8162	459.596	15.8137
-35.8114	458.298	15.88208
-35.8047	462.444	15.9504
-35.79763	465.543	16.0188
-35.7919	465.463	16.0872
-35.7869	464.58	16.1555
-35.7824	462.904	16.2239
-35.77668	460.254	16.2922
-35.7694	458.401	16.3606
-35.7656	457.224	16.429
-35.7587	454.146	16.4973
-35.753	453.136	16.5657
-35.7483	457.6124	16.634
-35.741	459.763	16.7024
-35.7362	460.959	16.7708
-35.7314	460.817	16.8391
-35.724	460.393	16.9075
-35.7188	459.225	16.97583
-35.7132	456.821	17.0442
-35.7075	453.887	17.1125
-35.7014	449.898	17.1809
-35.69664	450.059	17.2493
-35.6903	453.392	17.3176
-35.6843	454.982	17.386
-35.678	454.321	17.4543
-35.673	457.764	17.5227
-35.668	455.999	17.5911
-35.6615	455.554	17.6594
-35.6556	453.674	17.7278
-35.6499	449.634	17.7961
-35.6453	444.389	17.8645
-35.6381	447.4234	17.9329
-35.634	448.617	18.0012
-35.628	447.453	18.06958
-35.6215	450.803	18.1379
-35.6162	450.9	18.2063
-35.6098	452.602	18.2747
-35.6049	452.55	18.343
-35.5997	450.467	18.4114
-35.594	445.621	18.4797
-35.58638	441.513	18.5481
-35.5817	442.9364	18.6165
-35.5758	443.244	18.6848
-35.5715	441.954	18.7532
-35.5652	443.69	18.8215
-35.55928	446.557	18.8899
-35.553	444.244	18.9583
-35.5476	444.188	19.0266
-35.5416	440.15	19.095
-35.5328	-56.229	19.16333
-35.5292	-46.3175	19.2317
-35.5237	-44.1671	19.3
-35.5191	-46.0007	19.3684
-35.5132	-46.0789	19.4368
-35.5078	-42.2307	19.5051
-35.5037	-43.0898	19.5735
-35.4963	-41.0311	19.6418
-35.4906	-38.4178	19.7102
-35.4853	-38.7654	19.7786
-35.4802	-43.4243	19.8469
-35.474	-43.72081	19.9153
-35.46801	-43.0361	19.9836
-35.46608	-42.81683	20.0129

Data Header:			0.254_solid_dimension_typeiv_090_r0			Time:	23.0813	s	4/14/2019 2:02:00 AM
Data Acquisition:	Timed
Station Name:	ft40.cfg
Test File Name:	monotonic_0.2540_typeiv_solid_090_dimension.tst
Displacement	Force	Running Time
mm	N	s
-35.4653	-40.17997	20.0227
-35.4637	-43.8399	20.0422
-35.461	-45.3761	20.0618
-35.4606	-43.7996	20.0813
-35.4592	-40.9941	20.10083
-35.4562	-48.6915	20.1204
-35.4554	-41.7702	20.1399
-35.4539	-40.26939	20.1594
-35.4513	-46.9511	20.179
-35.4505	-44.6708	20.1985
-35.4482	-37.0169	20.218
-35.4469	-45.135	20.2375
-35.4454	-45.0935	20.25708
-35.4432	-40.19759	20.2766
-35.4411	-45.8833	20.2961
-35.4397	-46.6202	20.3157
-35.4391	-39.6764	20.3352
-35.4378	-45.3072	20.3547
-35.435	-48.8403	20.3743
-35.4344	-37.2681	20.3938
-35.4324	-42.0664	20.41333
-35.4311	-46.4211	20.4329
-35.4295	-42.0083	20.4524
-35.4274	-38.60561	20.4719
-35.4256	-43.736	20.4915
-35.4239	-41.7489	20.511
-35.4216	-44.7893	20.5305
-35.4205	-44.827	20.55
-35.4184	-43.6394	20.56958
-35.417	-36.13242	20.5891
-35.4158	-43.5735	20.6086
-35.41481	-43.8209	20.6282
-35.4124	-41.1054	20.6477
-35.4111	-40.243	20.6672
-35.4095	-47.7906	20.6868
-35.4073	-40.0215	20.7063
-35.4062	-39.6946	20.72583
-35.4049	-45.0606	20.7454
-35.403	-44.3584	20.7649
-35.4005	-39.4845	20.7844
-35.3997	-46.1434	20.804
-35.3984	-40.9316	20.8235
-35.3956	-39.182	20.843
-35.395	-47.0149	20.8625
-35.3935	-47.13	20.88208
-35.3921	-39.8258	20.9016
-35.3905	-43.9852	20.9211
-35.3881	-45.6029	20.9407
-35.3861	-39.004	20.9602
-35.3863	-45.3166	20.9797
-35.3828	-47.4498	20.9993
-35.3809	-40.4781	21.0188
-35.3801	-42.0836	21.03833
-35.3791	-45.9977	21.0579
-35.37569	-38.2624	21.0774
-35.3752	-42.6383	21.0969
-35.3735	-44.7777	21.1165
-35.3719	-44.0708	21.136
-35.371	-38.1221	21.1555
-35.369	-44.9683	21.175
-35.3671	-42.2553	21.19458
-35.3654	-43.5297	21.2141
-35.3639	-43.2509	21.2336
-35.3626	-45.5111	21.2532
-35.3605	-38.5539	21.2727
-35.3586	-42.7956	21.2922
-35.3577	-46.1308	21.3118
-35.3566	-42.667	21.3313
-35.3542	-40.5382	21.35083
-35.35207	-46.8264	21.3704
-35.3507	-42.1608	21.3899
-35.3488	-39.663	21.4094
-35.3483	-44.4317	21.429
-35.3456	-45.2156	21.4485
-35.3438	-39.8173	21.468
-35.3427	-44.314	21.4875
-35.34071	-43.9194	21.50708
-35.3391	-38.1104	21.5266
-35.3373	-46.5377	21.5461
-35.3359	-47.4442	21.5657
-35.3354	-39.4228	21.5852
-35.3347	-41.5951	21.6047
-35.3314	-45.7517	21.6243
-35.3297	-39.8266	21.6438
-35.3284	-44.1602	21.66333
-35.3275	-43.9832	21.6829
-35.3249	-41.354	21.7024
-35.3234	-39.8439	21.7219
-35.3212	-45.0173	21.7415
-35.3205	-40.4274	21.761
-35.3175	-42.4683	21.7805
-35.3165	-44.7876	21.8
-35.3147	-45.7003	21.81958
-35.3125	-38.1755	21.8391
-35.3119	-44.168	21.8586
-35.3096	-43.9314	21.8782
-35.3087	-43.7542	21.8977
-35.3057	-40.8947	21.9172
-35.3056	-45.7732	21.9368
-35.3034	-39.8882	21.9563
-35.3016	-41.7886	21.97583
-35.3012	-47.1994	21.9954
-35.2984	-42.1533	22.0149
-35.2976	-37.6121	22.0344
-35.29528	-46.5434	22.054
-35.2935	-44.1751	22.0735
-35.2917	-37.6593	22.093
-35.2915	-46.2001	22.1125
-35.2888	-46.459	22.13208
-35.2874	-41.2794	22.1516
-35.2845	-43.8968	22.1711
-35.2845	-44.8581	22.1907
-35.2824	-39.24712	22.2102
-35.2802	-45.9367	22.2297
-35.2796	-45.92865	22.2493
-35.2774	-40.1855	22.2688
-35.2771	-40.6808	22.28833
-35.27404	-47.6081	22.3079
-35.2727	-41.4625	22.3274
-35.2718	-43.73671	22.3469
-35.2695	-43.558	22.3665
-35.2669	-43.6413	22.386
-35.2665	-39.41198	22.4055
-35.2642	-44.8731	22.425
-35.26165	-42.9129	22.44458
-35.2598	-43.0039	22.4641
-35.2604	-43.3369	22.4836
-35.2584	-47.2851	22.5032
-35.2567	-39.3095	22.5227
-35.25507	-42.889	22.5422
-35.25275	-45.52195	22.5618
-35.2515	-43.72974	22.5813
-35.2497	-41.7552	22.60083
-35.248	-46.8195	22.6204
-35.2464	-43.141	22.6399
-35.2454	-39.6583	22.6594
-35.2432	-48.4003	22.679
-35.24118	-44.2007	22.6985
-35.2397	-37.8722	22.718
-35.2373	-46.004	22.7375
-35.2368	-46.001	22.75708
-35.2352	-38.0004	22.7766
-35.2343	-45.805	22.7961
-35.2322	-45.1995	22.8157
-35.2309	-41.2774	22.8352
-35.228	-41.87796	22.8547
-35.22665	-46.0456	22.8743
-35.2253	-38.06496	22.8938
-35.2236	-46.284	22.91333
-35.221	-45.9643	22.9329
-35.2203	-41.836	22.9524
-35.2176	-38.9928	22.9719
-35.2171	-45.1185	22.9915
-35.2154	-42.5619	23.011
-35.2149	-41.8889	23.0305
-35.2125	-44.2435	23.05
-35.2112	-45.2296	23.06958