File: data/processed_data_files/tensile/0.254_hd_dimension_typei_090_r(5).dat
MTS793|BTW|ENU|1|2|.|/|:|1|0|0|A

Data Header:			0.254_hd_dimension_typei_090_r0			Time:	20.0181	s	4/15/2019 3:41:17 PM
Data Acquisition:	Timed
Station Name:	ft40.cfg
Test File Name:	monotonic_0.2540_typei_hd_090_dimension.tst
Displacement	Force	Running Time
mm	N	s
9.9802	-163.444	0.0224609
9.98244	-164.737	0.0908203
9.98809	-161.273	0.15918
9.99412	-155.739	0.227539
10.0003	-151.791	0.295898
10.006	-151.487	0.364258
10.0112	-151.94	0.432617
10.0171	-151.201	0.500977
10.023	-149.357	0.569336
10.0287	-149.0885	0.637695
10.03357	-139.63	0.706055
10.0387	-133.844	0.774414
10.0447	-130.29	0.842773
10.0498	-122.7607	0.911133
10.0559	-120.196	0.979492
10.0622	-117.074	1.04785
10.0673	-119.355	1.11621
10.07356	-116.041	1.18457
10.0795	-118.246	1.25293
10.0855	-114.577	1.32129
10.09	-110.256	1.38965
10.09617	-102.415	1.45801
10.1013	-98.8629	1.52637
10.1082	-90.55471	1.59473
10.1141	-86.8603	1.66309
10.1188	-83.34375	1.73145
10.1249	-80.7274	1.7998
10.13	-81.183	1.86816
10.1366	-82.37854	1.93652
10.1416	-80.3522	2.00488
10.1476	-75.5643	2.07324
10.1531	-69.0862	2.1416
10.159	-66.6304	2.20996
10.1638	-57.90472	2.27832
10.16935	-52.5394	2.34668
10.1767	-49.8605	2.41504
10.1816	-46.1078	2.4834
10.1875	-44.7395	2.55176
10.1933	-45.573	2.62012
10.1984	-47.2047	2.68848
10.205	-42.2535	2.75684
10.2105	-37.5066	2.8252
10.2156	-35.8956	2.89355
10.2215	-25.1275	2.96191
10.2273	-18.5595	3.03027
10.2326	-16.3545	3.09863
10.2386	-11.8002	3.16699
10.2445	-9.33274	3.23535
10.24843	-9.57306	3.30371
10.2547	-11.2135	3.37207
10.2613	-6.20394	3.44043
10.2662	-4.77596	3.50879
10.2726	-2.51748	3.57715
10.2785	5.14145	3.64551
10.2848	12.9045	3.71387
10.2903	16.99486	3.78223
10.2945	22.3486	3.85059
10.3012	28.55756	3.91895
10.30674	27.1298	3.9873
10.31157	26.3183	4.05566
10.3183	28.24732	4.12402
10.3238	35.6231	4.19238
10.3292	33.1875	4.26074
10.3349	38.1237	4.3291
10.3411	46.2948	4.39746
10.3467	51.348	4.46582
10.3515	57.7413	4.53418
10.3569	61.991	4.60254
10.3642	62.01828	4.6709
10.36901	63.9878	4.73926
10.3752	64.7909	4.80762
10.3814	68.7946	4.87598
10.387	68.887	4.94434
10.3921	73.2926	5.0127
10.3977	77.0289	5.08105
10.4046	84.2346	5.14941
10.4089	90.9797	5.21777
10.4149	96.9143	5.28613
10.4203	100.155	5.35449
10.4266	99.6153	5.42285
10.4328	100.774	5.49121
10.4378	106.357	5.55957
10.44234	104.938	5.62793
10.44852	109.4374	5.69629
10.4546	114.274	5.76465
10.4603	116.377	5.83301
10.4653	123.091	5.90137
10.4723	131.784	5.96973
10.47655	133.892	6.03809
10.4837	136.103	6.10645
10.4898	138.137	6.1748
10.4949	144.037	6.24316
10.50027	139.909	6.31152
10.5065	143.023	6.37988
10.5124	146.556	6.44824
10.51725	149.884	6.5166
10.52332	156.909	6.58496
10.52935	164.315	6.65332
10.5344	166.4	6.72168
10.54	169.496	6.79004
10.54612	174.5181	6.8584
10.5509	179.005	6.92676
10.5576	176.475	6.99512
10.5636	175.803	7.06348
10.569	182.102	7.13184
10.5746	183.979	7.2002
10.5804	187.249	7.26855
10.5852	197.955	7.33691
10.5915	203.759	7.40527
10.5971	203.8121	7.47363
10.6035	207.203	7.54199
10.609	214.126	7.61035
10.6135	214.543	7.67871
10.6212	212.3457	7.74707
10.6249	216.459	7.81543
10.6306	218.763	7.88379
10.6363	222.201	7.95215
10.6426	228.9931	8.02051
10.6485	233.564	8.08887
10.6548	237.936	8.15723
10.6599	241.723	8.22559
10.6657	249.062	8.29395
10.6709	251.1808	8.3623
10.6771	251.311	8.43066
10.6829	251.613	8.49902
10.6878	253.524	8.56738
10.6939	255.862	8.63574
10.6989	261.699	8.7041
10.70564	266.195	8.77246
10.7116	269.879	8.84082
10.7154	276.236	8.90918
10.7226	284.339	8.97754
10.7282	286.2	9.0459
10.7334	285.532	9.11426
10.7395	287.643	9.18262
10.7457	287.141	9.25098
10.7508	288.4585	9.31934
10.7566	294.886	9.3877
10.7626	299.485	9.45605
10.767	302.295	9.52441
10.7734	307.665	9.59277
10.7801	316.569	9.66113
10.7848	318.944	9.72949
10.7902	321.642	9.79785
10.7971	322.914	9.86621
10.8023	322.184	9.93457
10.8076	322.7597	10.00293
10.81354	328.427	10.0713
10.8191	331.439	10.1396
10.8244	333.121	10.208
10.8303	337.312	10.2764
10.8361	349.538	10.3447
10.8422	354.4147	10.4131
10.8477	354.987	10.4814
10.8537	358.733	10.5498
10.8587	360.276	10.6182
10.8635	358.456	10.6865
10.8699	359.792	10.7549
10.87686	363.989	10.8232
10.8822	364.762	10.8916
10.8872	368.1416	10.96
10.8933	379.689	11.02832
10.8994	387.238	11.09668
10.9041	388.6962	11.165
10.9114	392.704	11.2334
10.9168	394.721	11.3018
10.9223	394.887	11.3701
10.92668	394.195	11.4385
10.9337	394.4935	11.5068
10.93902	396.184	11.5752
10.9451	401.989	11.6436
10.9511	409.1521	11.7119
10.9563	419.134	11.7803
10.9614	420.294	11.8486
10.9674	425.902	11.917
10.9732	428.021	11.9854
10.97881	428.625	12.0537
10.98418	429.054	12.12207
10.9895	428.234	12.19043
10.9957	428.158	12.2588
11.0015	432.59	12.3271
11.0069	439.112	12.3955
11.013	448.19	12.4639
11.019	452.498	12.5322
11.0241	458.874	12.6006
11.02994	460.833	12.6689
11.0353	461.858	12.7373
11.0413	463.474	12.8057
11.047	462.765	12.874
11.053	461.56	12.9424
11.05861	462.913	13.0107
11.0644	469.6163	13.0791
11.0703	476.164	13.1475
11.0762	480.698	13.21582
11.081	488.972	13.28418
11.0854	494.14	13.3525
11.09293	493.5611	13.4209
11.09815	497.879	13.4893
11.1035	497.731	13.5576
11.1099	494.555	13.626
11.1162	493.274	13.6943
11.1213	498.341	13.7627
11.1273	507.183	13.8311
11.1326	509.926	13.8994
11.13837	517.161	13.9678
11.1443	523.967	14.0361
11.14831	525.53	14.1045
11.15667	528.458	14.1729
11.161	530.679	14.2412
11.1673	529.254	14.30957
11.17252	524.9751	14.37793
11.1776	527.024	14.4463
11.1842	536.724	14.5146
11.18914	540.2121	14.583
11.1956	545.88	14.6514
11.2015	554.23	14.7197
11.2072	557.222	14.7881
11.2121	559.477	14.8564
11.2184	561.334	14.9248
11.223	561.164	14.9932
11.2284	557.745	15.0615
11.23538	558.243	15.1299
11.2413	564.89	15.1982
11.2462	569.012	15.2666
11.2514	573.804	15.335
11.2583	580.502	15.40332
11.26264	586.667	15.47168
11.2688	590.384	15.54
11.2752	593.395	15.6084
11.28093	593.576	15.6768
11.2858	590.178	15.7451
11.2922	590.465	15.8135
11.2975	593.602	15.8818
11.3027	596.101	15.9502
11.3085	601.678	16.0186
11.3144	607.5022	16.0869
11.3205	612.3	16.1553
11.3255	619.952	16.2236
11.3316	623.466	16.292
11.338	622.723	16.3604
11.3433	619.055	16.4287
11.3491	620.3266	16.49707
11.3553	626.169	16.56543
11.3601	623.793	16.6338
11.3657	628.268	16.7021
11.3716	636.492	16.7705
11.3778	639.104	16.8389
11.3825	646.1	16.9072
11.3892	651.145	16.9756
11.394	654.544	17.0439
11.4003	651.2149	17.1123
11.405	651.533	17.1807
11.4114	655.027	17.249
11.417	652.843	17.3174
11.4229	655.75	17.3857
11.42793	661.391	17.4541
11.4339	668.135	17.5225
11.4409	672.77	17.59082
11.4457	678.397	17.65918
11.4519	683.057	17.7275
11.4571	680.346	17.7959
11.4637	678.526	17.8643
11.4682	684.7066	17.9326
11.4743	683.327	18.001
11.4804	681.772	18.0693
11.4861	686.539	18.1377
11.4903	691.294	18.2061
11.4968	697.575	18.2744
11.5027	701.626	18.3428
11.508	709.17	18.4111
11.514	708.76	18.4795
11.5201	707.369	18.5479
11.5255	711.964	18.6162
11.53156	711.3	18.68457
11.5367	710.399	18.75293
11.5415	712.162	18.8213
11.5469	714.629	18.8896
11.5531	720.43	18.958
11.5598	726.65	19.0264
11.5658	732.538	19.0947
11.5715	734.853	19.1631
11.5762	736.1347	19.2314
11.5816	736.7785	19.2998
11.5888	738.667	19.3682
11.5942	736.624	19.4365
11.5995	736.633	19.5049
11.6049	740.837	19.5732
11.6106	743.294	19.6416
11.617	750.089	19.71
11.62249	753.597	19.77832
11.6278	755.992	19.84668
11.6335	758.9939	19.915
11.6388	762.862	19.9834
11.6416	754.955	20.0127

Data Header:			0.254_hd_dimension_typei_090_r0			Time:	40.0186	s	4/15/2019 3:41:37 PM
Data Acquisition:	Timed
Station Name:	ft40.cfg
Test File Name:	monotonic_0.2540_typei_hd_090_dimension.tst
Displacement	Force	Running Time
mm	N	s
11.6429	758.926	20.0225
11.6476	765.047	20.09082
11.6528	768.925	20.15918
11.6595	772.317	20.2275
11.6651	775.164	20.2959
11.6705	771.827	20.3643
11.67585	768.712	20.4326
11.68246	773.0965	20.501
11.6883	772.701	20.5693
11.694	774.421	20.6377
11.6992	780.0202	20.7061
11.7055	784.919	20.7744
11.7112	790.514	20.8428
11.7171	793.138	20.9111
11.7218	796.586	20.9795
11.728	794.968	21.0479
11.7352	791.635	21.1162
11.7392	794.234	21.18457
11.7444	792.9892	21.25293
11.751	794.299	21.3213
11.7572	797.647	21.3896
11.76151	800.232	21.458
11.7674	806.118	21.5264
11.7729	811.627	21.5947
11.7789	813.415	21.6631
11.7849	813.315	21.7314
11.7903	811.346	21.7998
11.79688	815.099	21.8682
11.8032	813.212	21.9365
11.8074	810.529	22.0049
11.8135	815.53	22.0732
11.8192	815.187	22.1416
11.825	818.3327	22.21
11.8309	824.982	22.27832
11.8359	829.04	22.34668
11.8422	827.172	22.415
11.8478	829.923	22.4834
11.8531	832.591	22.5518
11.8582	827.848	22.6201
11.8642	824.88	22.6885
11.8709	826.958	22.7568
11.8766	827.214	22.8252
11.8812	830.565	22.8936
11.8874	835.226	22.9619
11.8938	839.149	23.0303
11.8992	839.12	23.0986
11.9051	839.497	23.167
11.9103	843.009	23.2354
11.916	842.131	23.3037
11.9222	836.304	23.37207
11.9272	835.614	23.44043
11.9317	836.155	23.5088
11.9388	837.089	23.5771
11.9439	840.663	23.6455
11.9498	846.43	23.7139
11.9558	846.82	23.7822
11.9617	847.485	23.8506
11.9674	850.9259	23.9189
11.9736	850.652	23.9873
11.9785	848.148	24.0557
11.9847	843.415	24.124
11.9896	843.101	24.1924
11.9957	844.214	24.2607
12.0016	844.618	24.3291
12.00755	849.657	24.3975
12.0133	850.534	24.46582
12.018	851.799	24.53418
12.0245	854.555	24.6025
12.0303	855.826	24.6709
12.0357	852.933	24.7393
12.0414	849.834	24.8076
12.04734	847.52	24.876
12.0531	845.852	24.9443
12.0577	847.139	25.0127
12.06466	848.513	25.0811
12.0701	849.368	25.1494
12.0746	851.848	25.2178
12.0809	855.851	25.2861
12.087	857.503	25.3545
12.0922	854.403	25.4229
12.0983	853.713	25.4912
12.1047	848.669	25.55957
12.11012	845.231	25.62793
12.1155	846.411	25.6963
12.1196	848.68	25.7646
12.1264	845.707	25.833
12.1338	849.097	25.9014
12.1386	854.215	25.9697
12.1435	857.259	26.0381
12.1487	855.966	26.1064
12.155	853.038	26.1748
12.1622	851.026	26.2432
12.1658	845.745	26.3115
12.1727	844.168	26.3799
12.1779	846.463	26.4482
12.1833	843.216	26.5166
12.1892	843.724	26.585
12.195	850.983	26.65332
12.2	854.446	26.72168
12.2072	852.005	26.79
12.2131	850.259	26.8584
12.2177	850.374	26.9268
12.2238	844.978	26.9951
12.2288	841.536	27.0635
12.2352	842.458	27.1318
12.2397	838.217	27.2002
12.2466	836.702	27.2686
12.2518	841.459	27.3369
12.2579	849.014	27.4053
12.2637	848.66	27.4736
12.2688	846.125	27.542
12.2755	848.1051	27.6104
12.2813	843.302	27.6787
12.2858	838.029	27.74707
12.2914	837.6452	27.81543
12.29773	836.844	27.8838
12.3027	832.857	27.9521
12.309	837.277	28.0205
12.3148	842.272	28.0889
12.3203	843.2312	28.1572
12.3266	844.057	28.2256
12.3318	844.157	28.2939
12.3388	841.418	28.3623
12.3426	840.145	28.4307
12.3482	834.371	28.499
12.3547	830.256	28.5674
12.3607	829.421	28.6357
12.3664	833.291	28.7041
12.3718	836.2	28.7725
12.3769	838.516	28.84082
12.3828	840.226	28.90918
12.3879	842.665	28.9775
12.3947	838.383	29.0459
12.4003	838.253	29.1143
12.40595	834.529	29.1826
12.411	829.416	29.251
12.4163	828.385	29.3193
12.4221	827.796	29.3877
12.4292	832.6723	29.4561
12.4344	832.481	29.5244
12.4407	837.414	29.5928
12.445	839.315	29.6611
12.451	837.992	29.7295
12.4566	838.149	29.7979
12.4634	837.445	29.8662
12.4684	830.3623	29.93457
12.4753	824.364	30.00293
12.4811	827.2	30.0713
12.4864	828.747	30.1396
12.491	828.041	30.208
12.4967	833.246	30.2764
12.5025	837.639	30.3447
12.509	836.013	30.4131
12.5151	836.248	30.4814
12.5207	836.199	30.5498
12.5257	829.857	30.6182
12.5307	823.104	30.6865
12.5366	824.7619	30.7549
12.542	827.647	30.8232
12.5482	825.829	30.8916
12.5539	828.2019	30.96
12.5603	831.642	31.02832
12.5653	834.311	31.09668
12.5704	835.484	31.165
12.5761	834.732	31.2334
12.5825	831.531	31.3018
12.5882	825.56	31.3701
12.5941	822.134	31.4385
12.5996	825.634	31.5068
12.605	825.3858	31.5752
12.6118	824.727	31.6436
12.6174	828.219	31.7119
12.6222	831.047	31.7803
12.6275	834.3725	31.8486
12.6343	833.459	31.917
12.6396	831.354	31.9854
12.6458	825.462	32.0537
12.6513	823.694	32.12207
12.657	824.647	32.19043
12.66282	822.555	32.2588
12.668	823.089	32.3271
12.673	825.03	32.3955
12.68011	827.242	32.4639
12.6853	831.533	32.5322
12.6907	833.678	32.6006
12.6966	832.289	32.6689
12.702	826.643	32.7373
12.7073	825.782	32.8057
12.7147	825.363	32.874
12.7193	821.013	32.9424
12.7242	821.37	33.0107
12.7299	824.3186	33.0791
12.7358	825.673	33.1475
12.7418	829.909	33.21582
12.7476	833.056	33.28418
12.7535	831.728	33.3525
12.75895	827.553	33.4209
12.7643	826.934	33.4893
12.7703	827.0863	33.5576
12.7757	822.216	33.626
12.78212	819.017	33.6943
12.788	821.428	33.7627
12.792	823.923	33.8311
12.7995	826.3941	33.8994
12.8046	830.426	33.9678
12.80962	831.872	34.0361
12.816	828.348	34.1045
12.8214	825.9	34.1729
12.8277	828.93	34.2412
12.8338	824.353	34.30957
12.8388	819.1828	34.37793
12.8429	821.181	34.4463
12.8509	823.38	34.5146
12.8555	822.786	34.583
12.8617	827.545	34.6514
12.8672	830.624	34.7197
12.87325	829.462	34.7881
12.8793	827.114	34.8564
12.8846	829.52	34.9248
12.88858	827.754	34.9932
12.896	820.24	35.0615
12.9012	821.174	35.1299
12.9065	820.182	35.1982
12.9115	821.315	35.2666
12.9191	824.832	35.335
12.924	827.005	35.40332
12.9307	827.77	35.47168
12.9356	826.998	35.54
12.9406	828.814	35.6084
12.9471	829.555	35.6768
12.953	825.119	35.7451
12.9582	822.068	35.8135
12.9633	819.91	35.8818
12.97024	820.462	35.9502
12.9761	823.126	36.0186
12.9821	824.64	36.0869
12.9872	825.317	36.1553
12.99279	827.029	36.2236
12.9979	832.297	36.292
13.004	827.875	36.3604
13.0093	825.4566	36.4287
13.0161	824.357	36.49707
13.02202	819.159	36.56543
13.0267	819.726	36.6338
13.0329	820.654	36.7021
13.0378	824.4	36.7705
13.0439	823.461	36.8389
13.0496	826.216	36.9072
13.0551	832.045	36.9756
13.061	831.094	37.0439
13.0667	826.5625	37.1123
13.0716	825.336	37.1807
13.0775	822.409	37.249
13.0836	818.932	37.3174
13.0888	819.332	37.3857
13.0954	821.446	37.4541
13.1006	820.265	37.5225
13.1061	822.29	37.59082
13.1124	830.01	37.65918
13.11833	831.5885	37.7275
13.12378	827.957	37.7959
13.129	827.231	37.8643
13.1356	825.463	37.9326
13.141	819.342	38.001
13.1466	818.494	38.0693
13.1523	819.148	38.1377
13.1582	820.3017	38.2061
13.1642	819.224	38.2744
13.1691	826.8985	38.3428
13.1746	830.349	38.4111
13.1802	827.909	38.4795
13.1855	828.81	38.5479
13.193	825.782	38.6162
13.1984	822.346	38.68457
13.2025	820.684	38.75293
13.2096	819.347	38.8213
13.215	819.953	38.8896
13.2204	819.681	38.958
13.2258	823.263	39.0264
13.2325	829.635	39.0947
13.2377	830.2359	39.1631
13.244	828.961	39.2314
13.2487	824.931	39.2998
13.2543	823.664	39.3682
13.2605	821.599	39.4365
13.2666	819.944	39.5049
13.2722	818.143	39.5732
13.2777	817.434	39.6416
13.2833	821.779	39.71
13.2892	825.191	39.77832
13.2943	829.876	39.84668
13.2996	828.307	39.915
13.3067	828.52	39.9834
13.3083	818.23	40.0127

Data Header:			0.254_hd_dimension_typei_090_r0			Time:	56.7722	s	4/15/2019 3:41:54 PM
Data Acquisition:	Timed
Station Name:	ft40.cfg
Test File Name:	monotonic_0.2540_typei_hd_090_dimension.tst
Displacement	Force	Running Time
mm	N	s
13.31	824.163	40.0225
13.3144	819.396	40.0811
13.3189	818.637	40.1396
13.3233	818.672	40.1982
13.3282	816.206	40.2568
13.333	819.8114	40.31543
13.3384	819.169	40.374
13.3439	822.341	40.4326
13.3498	820.719	40.4912
13.3536	828.879	40.5498
13.3589	824.81	40.6084
13.3622	831.808	40.667
13.3681	826.891	40.7256
13.3727	828.757	40.78418
13.3764	825.262	40.8428
13.3822	824.3562	40.9014
13.3867	819.473	40.96
13.3911	819.304	41.0186
13.3977	817.75	41.0771
13.4015	816.667	41.1357
13.4056	817.916	41.1943
13.4117	819.99	41.25293
13.41716	821.027	41.3115
13.4222	824.654	41.3701
13.42614	827.118	41.4287
13.43098	825.601	41.4873
13.4365	829.341	41.5459
13.4404	830.021	41.6045
13.446	829.509	41.6631
13.4511	827.025	41.72168
13.45673	827.794	41.7803
13.461	826.044	41.8389
13.4659	821.576	41.8975
13.4708	822.394	41.9561
13.4755	816.205	42.0146
13.4797	818.133	42.0732
13.4842	816.185	42.1318
13.48983	818.987	42.19043
13.4939	818.486	42.249
13.4998	823.291	42.3076
13.50457	825.152	42.3662
13.5088	823.853	42.4248
13.5162	828.64	42.4834
13.519	826.15	42.542
13.5242	828.3548	42.6006
13.5285	825.085	42.65918
13.5347	826.3028	42.7178
13.5387	821.366	42.7764
13.5433	821.815	42.835
13.5487	814.828	42.8936
13.5537	819.197	42.9521
13.5564	815.1	43.0107
13.5636	817.867	43.0693
13.5681	815.601	43.12793
13.5729	819.962	43.1865
13.5786	822.061	43.2451
13.582	823.607	43.3037
13.58733	827.997	43.3623
13.5919	826.818	43.4209
13.5977	829.333	43.4795
13.6029	829.589	43.5381
13.6063	829.883	43.59668
13.6112	824.633	43.6553
13.6165	825.524	43.7139
13.62249	822.0625	43.7725
13.6265	821.397	43.8311
13.6307	820.361	43.8896
13.636	815.059	43.9482
13.64	817.9621	44.0068
13.6456	816.688	44.06543
13.6513	821.592	44.124
13.6561	820.02	44.1826
13.661	826.804	44.2412
13.6656	824.958	44.2998
13.6698	828.692	44.3584
13.6756	828.637	44.417
13.6799	827.747	44.4756
13.685	830.257	44.53418
13.6906	824.919	44.5928
13.69506	824.016	44.6514
13.7002	818.4234	44.71
13.7046	822.028	44.7686
13.7103	815.6759	44.8271
13.7153	817.9184	44.8857
13.71929	815.023	44.9443
13.7253	818.878	45.00293
13.72953	815.877	45.0615
13.7335	822.864	45.1201
13.7387	820.128	45.1787
13.74299	825.573	45.2373
13.749	825.818	45.2959
13.7529	827.164	45.3545
13.7585	824.888	45.4131
13.763	828.493	45.47168
13.7671	824.948	45.5303
13.7735	823.803	45.5889
13.777	823.365	45.6475
13.7822	818.473	45.7061
13.7879	816.786	45.7646
13.7916	817.257	45.8232
13.7968	817.355	45.8818
13.8016	816.531	45.94043
13.80724	819.305	45.999
13.8122	820.718	46.0576
13.8169	822.629	46.1162
13.8223	827.767	46.1748
13.8268	826.339	46.2334
13.8317	828.329	46.292
13.8367	828.213	46.3506
13.8412	827.19	46.40918
13.8458	823.622	46.4678
13.851	823.411	46.5264
13.8565	818.827	46.585
13.8612	815.883	46.6436
13.8653	817.824	46.7021
13.8708	813.272	46.7607
13.8758	817.299	46.8193
13.881	814.977	46.87793
13.8855	819.348	46.9365
13.8893	815.558	46.9951
13.8943	824.375	47.0537
13.9006	820.529	47.1123
13.9048	826.577	47.1709
13.9103	824.761	47.2295
13.9152	827.031	47.2881
13.9197	822.78	47.34668
13.9248	825.489	47.4053
13.9286	819.02	47.4639
13.93435	817.405	47.5225
13.9387	818.16	47.5811
13.9438	816.78	47.6396
13.9483	814.784	47.6982
13.953	816.32	47.7568
13.9595	817.393	47.81543
13.9634	816.883	47.874
13.9673	821.7583	47.9326
13.9721	824.061	47.9912
13.9782	824.574	48.0498
13.9828	827.727	48.1084
13.9887	828.519	48.167
13.99358	826.9	48.2256
13.9976	825.976	48.28418
14.0019	824.506	48.3428
14.0071	820.683	48.4014
14.0128	822.231	48.46
14.0171	816.802	48.5186
14.0223	817.858	48.5771
14.0264	815.65	48.6357
14.0313	815.814	48.6943
14.0368	815.755	48.75293
14.0415	817.409	48.8115
14.0461	821.28	48.8701
14.05075	821.097	48.9287
14.0565	826.505	48.9873
14.0618	822.591	49.0459
14.0666	826.687	49.1045
14.0719	825.1	49.1631
14.0761	827.707	49.22168
14.0801	821.172	49.2803
14.0852	823.29	49.3389
14.09032	815.941	49.3975
14.0953	817.155	49.4561
14.1002	813.563	49.5146
14.1051	814.953	49.5732
14.10992	811.997	49.6318
14.1157	815.023	49.69043
14.1197	816.25	49.749
14.1247	819.619	49.8076
14.1301	821.77	49.8662
14.1347	824.677	49.9248
14.1387	825.867	49.9834
14.1435	828.244	50.042
14.1496	827.579	50.1006
14.1537	825.83	50.15918
14.15876	824.787	50.2178
14.1637	821.081	50.2764
14.1688	817.681	50.335
14.1729	816.947	50.3936
14.1787	813.591	50.4521
14.1835	813.928	50.5107
14.1868	811.471	50.5693
14.19253	814.595	50.62793
14.1977	815.008	50.6865
14.2016	818.968	50.7451
14.2072	818.272	50.8037
14.2127	824.2486	50.8623
14.2177	823.751	50.9209
14.2226	822.0722	50.9795
14.2257	822.041	51.0381
14.2318	820.412	51.09668
14.2373	822.587	51.1553
14.2414	818.533	51.2139
14.2465	819.615	51.2725
14.2521	810.252	51.3311
14.255	814.648	51.3896
14.2613	809.023	51.4482
14.2668	812.786	51.5068
14.2712	808.71	51.56543
14.2768	815.782	51.624
14.2798	814.058	51.6826
14.2858	817.912	51.7412
14.2901	819.613	51.7998
14.295	821.205	51.8584
14.3	824.186	51.917
14.3057	823.538	51.9756
14.3103	823.232	52.03418
14.3141	820.496	52.0928
14.3196	821.068	52.1514
14.325	817.32	52.21
14.3297	813.841	52.2686
14.3346	811.423	52.3271
14.3398	811.704	52.3857
14.3441	810.518	52.4443
14.3495	812.449	52.50293
14.3544	815.036	52.5615
14.3591	814.767	52.6201
14.3633	819.246	52.6787
14.36864	820.0589	52.7373
14.373	821.982	52.7959
14.377	822.268	52.8545
14.384	822.665	52.9131
14.3887	820.385	52.97168
14.393	817.9704	53.0303
14.398	816.292	53.0889
14.403	811.036	53.1475
14.40823	812.462	53.2061
14.4128	808.566	53.2646
14.4172	810.088	53.3232
14.42148	807.891	53.3818
14.42781	811.301	53.44043
14.4328	806.774	53.499
14.43844	816.645	53.5576
14.4426	809.972	53.6162
14.4478	816.762	53.6748
14.4521	816.101	53.7334
14.4563	820.545	53.792
14.4609	815.986	53.8506
14.4676	818.79	53.90918
14.4704	815.037	53.9678
14.4763	812.987	54.0264
14.4808	811.362	54.085
14.4853	810.122	54.1436
14.4901	807.086	54.2021
14.4957	806.866	54.2607
14.5006	807.749	54.3193
14.5051	805.335	54.37793
14.51	809.753	54.4365
14.5149	809.938	54.4951
14.5202	812.7901	54.5537
14.5242	814.032	54.6123
14.5307	813.969	54.6709
14.53473	813.828	54.7295
14.5405	813.648	54.7881
14.54467	810.689	54.84668
14.5588	-147.36	54.9053
14.5572	-40.57032	54.9639
14.5609	-46.8154	55.0225
14.5656	-49.2198	55.0811
14.5692	-52.4417	55.1396
14.5735	-50.6822	55.1982
14.5805	-54.2623	55.2568
14.5837	-51.7799	55.31543
14.58945	-49.7653	55.374
14.5946	-49.4977	55.4326
14.5975	-42.9805	55.4912
14.6033	-46.3063	55.5498
14.6081	-40.9515	55.6084
14.6132	-43.6335	55.667
14.6185	-40.2351	55.7256
14.6228	-45.8626	55.78418
14.6286	-41.1426	55.8428
14.6323	-47.9738	55.9014
14.6373	-47.7544	55.96
14.6427	-51.1449	56.0186
14.6474	-52.2962	56.0771
14.6524	-54.4231	56.1357
14.6564	-52.5373	56.1943
14.6617	-51.8552	56.25293
14.6658	-50.4945	56.3115
14.67043	-46.3914	56.3701
14.677	-44.9438	56.4287
14.6813	-42.4206	56.4873
14.6871	-40.58744	56.5459
14.692	-37.6961	56.6045
14.6962	-40.5966	56.6631
14.7013	-40.1113	56.72168
14.7037	-53.6991	56.7607