File: data/processed_data_files/tensile/0.254_hd_uprint_typeiv_4545_r(7).dat
MTS793|BTW|ENU|1|2|.|/|:|1|0|0|A

Data Header:			0.254_hd_uprint_typeiv_4545_r0			Time:	20.019	s	4/13/2019 7:29:01 PM
Data Acquisition:	Timed
Station Name:	ft40.cfg
Test File Name:	monotonic_0.2540_typeiv_hd_4545_uprint.tst
Displacement	Force	Running Time
mm	N	s
-40.0351	-123.098	0.0224609
-40.0335	-120.595	0.0908203
-40.0279	-115.937	0.15918
-40.0219	-113.1754	0.227539
-40.0156	-106.95	0.295898
-40.0105	-102.9789	0.364258
-40.0045	-98.1852	0.432617
-39.9976	-92.7178	0.500977
-39.9932	-86.9968	0.569336
-39.9866	-88.4949	0.637695
-39.9812	-87.99028	0.706055
-39.9761	-83.7412	0.774414
-39.9703	-80.9739	0.842773
-39.9654	-81.0955	0.911133
-39.9598	-73.6877	0.979492
-39.953	-68.4656	1.04785
-39.9473	-64.4845	1.11621
-39.9425	-58.7554	1.18457
-39.9355	-53.7993	1.25293
-39.9297	-52.4898	1.32129
-39.925	-53.3387	1.38965
-39.9191	-46.77359	1.45801
-39.91378	-45.526	1.52637
-39.9079	-45.79871	1.59473
-39.9024	-39.59338	1.66309
-39.8964	-35.751	1.73145
-39.8914	-33.998	1.7998
-39.8854	-26.1367	1.86816
-39.8799	-21.9068	1.93652
-39.8745	-21.4128	2.00488
-39.8679	-19.4852	2.07324
-39.8621	-10.0733	2.1416
-39.8567	-11.4342	2.20996
-39.8509	-11.4907	2.27832
-39.84536	-7.59743	2.34668
-39.839	-2.9601	2.41504
-39.8339	0.955871	2.4834
-39.8275	7.23955	2.55176
-39.8225	10.2112	2.62012
-39.81776	12.1158	2.68848
-39.8112	16.7284	2.75684
-39.8055	22.8167	2.8252
-39.79977	22.6542	2.89355
-39.7944	23.2816	2.96191
-39.7884	27.7247	3.03027
-39.7827	29.5822	3.09863
-39.7767	34.0194	3.16699
-39.7717	38.7039	3.23535
-39.7656	43.0958	3.30371
-39.7598	45.0996	3.37207
-39.7558	51.0748	3.44043
-39.7489	56.5125	3.50879
-39.7418	57.944	3.57715
-39.7368	60.0439	3.64551
-39.7319	61.1744	3.71387
-39.7265	63.8338	3.78223
-39.7192	66.9188	3.85059
-39.71492	71.1773	3.91895
-39.707	74.4013	3.9873
-39.7025	79.186	4.05566
-39.697	85.2798	4.12402
-39.692	90.1053	4.19238
-39.68549	91.2282	4.26074
-39.6805	94.2677	4.3291
-39.675	94.0506	4.39746
-39.6697	97.3222	4.46582
-39.6635	101.569	4.53418
-39.6576	103.809	4.60254
-39.6511	104.494	4.6709
-39.6457	109.662	4.73926
-39.6402	119.005	4.80762
-39.6341	121.891	4.87598
-39.62859	125.0703	4.94434
-39.6225	129.674	5.0127
-39.6172	127.994	5.08105
-39.6116	131.863	5.14941
-39.6072	135.081	5.21777
-39.6008	134.345	5.28613
-39.5944	136.833	5.35449
-39.5898	140.911	5.42285
-39.5844	149.042	5.49121
-39.5766	153.261	5.55957
-39.5719	159.068	5.62793
-39.5665	163.31	5.69629
-39.5601	161.954	5.76465
-39.5544	164.924	5.83301
-39.5489	166.125	5.90137
-39.5442	167.357	5.96973
-39.5384	166.455	6.03809
-39.5326	174.324	6.10645
-39.52705	181.925	6.1748
-39.5205	184.385	6.24316
-39.5152	190.284	6.31152
-39.509	193.841	6.37988
-39.5032	197.758	6.44824
-39.498	198.264	6.5166
-39.492	200.404	6.58496
-39.4865	197.821	6.65332
-39.4822	199.313	6.72168
-39.4758	205.769	6.79004
-39.4693	213.351	6.8584
-39.4637	214.14	6.92676
-39.4579	220.912	6.99512
-39.4521	227.299	7.06348
-39.4466	228.168	7.13184
-39.4412	230.25	7.2002
-39.435	233.704	7.26855
-39.4283	230.64	7.33691
-39.4242	231.915	7.40527
-39.4193	238.785	7.47363
-39.4133	242.067	7.54199
-39.4075	245.871	7.61035
-39.4006	250.401	7.67871
-39.3964	256.972	7.74707
-39.3894	260.976	7.81543
-39.3847	263.463	7.88379
-39.3785	264.659	7.95215
-39.3723	263.046	8.02051
-39.3679	264.636	8.08887
-39.36031	270.295	8.15723
-39.355	273.162	8.22559
-39.3495	276.413	8.29395
-39.3447	280.717	8.3623
-39.339	287.216	8.43066
-39.3337	293.099	8.49902
-39.3273	295.711	8.56738
-39.3216	295.833	8.63574
-39.3158	294.959	8.7041
-39.3103	296.663	8.77246
-39.3055	300.371	8.84082
-39.2988	301.263	8.90918
-39.2929	307.3989	8.97754
-39.2869	310.52	9.0459
-39.28183	314.168	9.11426
-39.276	319.498	9.18262
-39.2693	325.581	9.25098
-39.2639	325.209	9.31934
-39.2595	325.661	9.3877
-39.2535	329.814	9.45605
-39.2472	332.6741	9.52441
-39.242	331.946	9.59277
-39.2355	337.194	9.66113
-39.23	339.4592	9.72949
-39.2246	342.958	9.79785
-39.21838	349.4339	9.86621
-39.2132	354.7106	9.93457
-39.2067	355.573	10.00293
-39.2018	355.929	10.0713
-39.19659	361.695	10.1396
-39.1896	363.631	10.208
-39.1852	362.791	10.2764
-39.1795	365.003	10.3447
-39.1735	369.203	10.4131
-39.1688	371.327	10.4814
-39.1618	375.144	10.5498
-39.1556	381.736	10.6182
-39.1506	381.361	10.6865
-39.146	386.15	10.7549
-39.1385	391.839	10.8232
-39.1339	393.335	10.8916
-39.1285	389.891	10.96
-39.1227	395.108	11.02832
-39.1151	395.494	11.09668
-39.1105	396.483	11.165
-39.1051	402.918	11.2334
-39.099	407.882	11.3018
-39.0927	409.844	11.3701
-39.0878	412.136	11.4385
-39.0827	420.1492	11.5068
-39.0757	421.9856	11.5752
-39.0713	419.482	11.6436
-39.0652	423.088	11.7119
-39.0596	423.394	11.7803
-39.0514	425.167	11.8486
-39.0484	428.727	11.917
-39.0426	432.094	11.9854
-39.0382	434.861	12.0537
-39.0318	437.858	12.12207
-39.0248	446.158	12.19043
-39.01992	448.483	12.2588
-39.0141	446.357	12.3271
-39.0085	449.249	12.3955
-39.0025	448.637	12.4639
-38.9958	451.691	12.5322
-38.9921	453.9722	12.6006
-38.9856	455.667	12.6689
-38.9804	457.594	12.7373
-38.9747	462.377	12.8057
-38.96854	469.349	12.874
-38.9632	470.365	12.9424
-38.95631	472.95	13.0107
-38.951	473.691	13.0791
-38.9456	473.66	13.1475
-38.9391	475.302	13.21582
-38.9339	475.917	13.28418
-38.9288	475.187	13.3525
-38.9224	478.118	13.4209
-38.9165	484.395	13.4893
-38.9101	490.728	13.5576
-38.90649	492.764	13.626
-38.9	494.917	13.6943
-38.8927	494.468	13.7627
-38.889	494.7149	13.8311
-38.8832	496.036	13.8994
-38.8774	497.389	13.9678
-38.872	493.56	14.0361
-38.8647	495.89	14.1045
-38.86042	503.813	14.1729
-38.8549	507.682	14.2412
-38.8496	509.013	14.30957
-38.8418	514.224	14.37793
-38.837	513.753	14.4463
-38.8311	513.704	14.5146
-38.8252	513.806	14.583
-38.819	513.284	14.6514
-38.8149	510.796	14.7197
-38.8089	510.3833	14.7881
-38.8037	518.245	14.8564
-38.79784	520.0282	14.9248
-38.7913	521.6814	14.9932
-38.7859	526.612	15.0615
-38.78	527.906	15.1299
-38.7738	526.173	15.1982
-38.769	527.263	15.2666
-38.7635	526.751	15.335
-38.7576	519.426	15.40332
-38.7512	521.9115	15.47168
-38.7461	528.334	15.54
-38.73999	526.6	15.6084
-38.7338	528.149	15.6768
-38.7288	532.82	15.7451
-38.7233	534.501	15.8135
-38.7178	532.572	15.8818
-38.7129	535.597	15.9502
-38.7061	531.293	16.0186
-38.7003	526.235	16.0869
-38.6958	525.687	16.1553
-38.6892	528.318	16.2236
-38.6843	528.642	16.292
-38.67844	528.826	16.3604
-38.6721	532.869	16.4287
-38.6665	533.43	16.49707
-38.6609	535.478	16.56543
-38.6553	533.958	16.6338
-38.6487	531.021	16.7021
-38.6437	526.59	16.7705
-38.6379	525.648	16.8389
-38.6317	527.448	16.9072
-38.6266	525.265	16.9756
-38.62	526.956	17.0439
-38.614	527.505	17.1123
-38.6094	528.745	17.1807
-38.6034	532.156	17.249
-38.5981	529.211	17.3174
-38.59341	529.033	17.3857
-38.5872	524.285	17.4541
-38.5813	523.384	17.5225
-38.5757	521.702	17.59082
-38.5702	520.413	17.65918
-38.5636	521.525	17.7275
-38.55809	520.7821	17.7959
-38.5522	523.279	17.8643
-38.5449	525.56	17.9326
-38.5408	525.508	18.001
-38.5345	524.2854	18.0693
-38.5296	522.327	18.1377
-38.5235	522.404	18.2061
-38.5177	519.018	18.2744
-38.5121	516.213	18.3428
-38.5067	518.139	18.4111
-38.5015	516.984	18.4795
-38.4958	518.508	18.5479
-38.4897	521.583	18.6162
-38.4839	522.38	18.68457
-38.4795	519.383	18.75293
-38.4725	518.232	18.8213
-38.4675	521.124	18.8896
-38.4615	517.339	18.958
-38.455	515.422	19.0264
-38.4504	515.309	19.0947
-38.444	512.912	19.1631
-38.4385	514.229	19.2314
-38.4326	517.167	19.2998
-38.4282	517.496	19.3682
-38.422	514.5531	19.4365
-38.4161	517.792	19.5049
-38.4106	518.817	19.5732
-38.4045	513.282	19.6416
-38.3993	512.984	19.71
-38.393	512.444	19.77832
-38.3872	508.362	19.84668
-38.3819	510.612	19.915
-38.3758	512.891	19.9834
-38.3737	514.174	20.0127

Data Header:			0.254_hd_uprint_typeiv_4545_r0			Time:	31.2424	s	4/13/2019 7:29:12 PM
Data Acquisition:	Timed
Station Name:	ft40.cfg
Test File Name:	monotonic_0.2540_typeiv_hd_4545_uprint.tst
Displacement	Force	Running Time
mm	N	s
-38.3727	511.541	20.0225
-38.3692	517.324	20.0615
-38.36636	512.581	20.1006
-38.3632	515.571	20.1396
-38.3588	513.514	20.1787
-38.3564	508.303	20.2178
-38.3532	517.2334	20.2568
-38.3491	508.008	20.2959
-38.3464	509.7084	20.335
-38.3437	514.864	20.374
-38.3396	506.211	20.4131
-38.3369	511.11	20.4521
-38.3337	512.057	20.4912
-38.33	507.515	20.5303
-38.3267	510.823	20.5693
-38.3232	508.785	20.6084
-38.3191	509.81	20.6475
-38.3176	510.813	20.6865
-38.3137	505.257	20.7256
-38.3102	511.2251	20.7646
-38.3063	507.315	20.8037
-38.3052	507.078	20.8428
-38.3016	515.233	20.8818
-38.2976	504.718	20.9209
-38.2955	509.301	20.96
-38.2925	511.2406	20.999
-38.28809	505.525	21.0381
-38.2848	511.52	21.0771
-38.2809	510.813	21.1162
-38.2788	505.033	21.1553
-38.2743	512.0174	21.1943
-38.2718	507.361	21.2334
-38.2676	508.421	21.2725
-38.2653	511.758	21.3115
-38.2622	505.412	21.3506
-38.2597	511.818	21.3896
-38.2552	508.749	21.4287
-38.2526	506.221	21.4678
-38.2485	511.189	21.5068
-38.24622	505.6196	21.5459
-38.242	505.537	21.585
-38.2392	511.606	21.624
-38.2365	503.099	21.6631
-38.2331	507.069	21.7021
-38.23	508.803	21.7412
-38.2261	502.96	21.7803
-38.2233	507.373	21.8193
-38.2194	502.463	21.8584
-38.2155	506.61	21.8975
-38.2129	505.216	21.9365
-38.2106	500.551	21.9756
-38.2076	509.21	22.0146
-38.2035	505.1412	22.0537
-38.2003	502.385	22.0928
-38.1972	511.475	22.1318
-38.1935	501.39	22.1709
-38.1904	504.744	22.21
-38.1866	511.341	22.249
-38.1834	501.57	22.2881
-38.18063	508.805	22.3271
-38.1782	507.381	22.3662
-38.17453	502.245	22.4053
-38.1699	512.4043	22.4443
-38.1675	504.966	22.4834
-38.1648	505.874	22.5225
-38.1612	508.728	22.5615
-38.1581	501.856	22.6006
-38.155	508.131	22.6396
-38.1516	508.227	22.6787
-38.1482	501.265	22.7178
-38.1446	511.676	22.7568
-38.1412	500.735	22.7959
-38.139	503.0495	22.835
-38.135	509.085	22.874
-38.13155	500.18	22.9131
-38.1277	505.596	22.9521
-38.1255	505.22	22.9912
-38.1219	502.954	23.0303
-38.1197	505.837	23.0693
-38.1156	503.05	23.1084
-38.1124	503.613	23.1475
-38.1107	504.146	23.1865
-38.1056	500.318	23.2256
-38.1038	506.42	23.2646
-38.0992	502.1423	23.3037
-38.0964	499.766	23.3428
-38.0927	509.701	23.3818
-38.08894	499.284	23.4209
-38.086	504.175	23.46
-38.083	506.784	23.499
-38.0801	499.752	23.5381
-38.077	505.675	23.5771
-38.0729	504.924	23.6162
-38.0692	499.273	23.6553
-38.0666	508.196	23.6943
-38.0642	504.416	23.7334
-38.06	503.817	23.7725
-38.05793	508.2562	23.8115
-38.0542	499.974	23.8506
-38.0512	505.499	23.8896
-38.0467	502.935	23.9287
-38.0438	499.959	23.9678
-38.0414	505.439	24.0068
-38.0373	500.331	24.0459
-38.0341	499.307	24.085
-38.0301	505.273	24.124
-38.0273	498.698	24.1631
-38.0245	500.691	24.2021
-38.0204	503.469	24.2412
-38.0184	497.876	24.2803
-38.0159	501.851	24.3193
-38.011	498.137	24.3584
-38.0076	501.413	24.3975
-38.0042	500.866	24.4365
-38.0019	497.05	24.4756
-37.9983	503.063	24.5146
-37.99556	497.613	24.5537
-37.9925	498.786	24.5928
-37.988	505.008	24.6318
-37.9838	497.659	24.6709
-37.9816	498.841	24.71
-37.9787	505.142	24.749
-37.9754	495.701	24.7881
-37.97226	501.3	24.8271
-37.9689	502.817	24.8662
-37.9652	498.5184	24.9053
-37.9622	504.999	24.9443
-37.9591	500.289	24.9834
-37.9556	501.88	25.0225
-37.9527	504.663	25.0615
-37.9503	497.136	25.1006
-37.9473	503.923	25.1396
-37.9434	501.456	25.1787
-37.9397	496.245	25.2178
-37.9361	505.119	25.2568
-37.9333	496.953	25.2959
-37.9294	497.467	25.335
-37.9265	503.991	25.374
-37.9235	495.555	25.4131
-37.9205	501.181	25.4521
-37.9167	499.805	25.4912
-37.91383	498.529	25.5303
-37.9109	499.621	25.5693
-37.9068	497.2923	25.6084
-37.9039	497.718	25.6475
-37.9018	499.266	25.6865
-37.897	495.485	25.7256
-37.8942	503.183	25.7646
-37.8917	498.82	25.8037
-37.888	495.611	25.8428
-37.8844	505.0162	25.8818
-37.881	493.643	25.9209
-37.8777	498.966	25.96
-37.8735	502.645	25.999
-37.8719	495.555	26.0381
-37.8668	501.247	26.0771
-37.8644	500.693	26.1162
-37.8605	496.13	26.1553
-37.8586	502.657	26.1943
-37.8553	497.354	26.2334
-37.8524	497.898	26.2725
-37.8484	503.678	26.3115
-37.8459	494.559	26.3506
-37.8419	501.618	26.3896
-37.8393	498.123	26.4287
-37.8356	494.306	26.4678
-37.8322	502.441	26.5068
-37.8293	495.834	26.5459
-37.8257	494.57	26.585
-37.8224	500.462	26.624
-37.8196	495.999	26.6631
-37.8165	495.147	26.7021
-37.81353	498.492	26.7412
-37.8097	494.5495	26.7803
-37.8064	498.069	26.8193
-37.8031	494.361	26.8584
-37.7993	497.237	26.8975
-37.7967	496.3678	26.9365
-37.7938	492.259	26.9756
-37.7898	500.923	27.0146
-37.7871	493.957	27.0537
-37.7843	494.704	27.0928
-37.7801	502.305	27.1318
-37.7771	494.9415	27.1709
-37.7738	495.968	27.21
-37.77	500.827	27.249
-37.7681	493.931	27.2881
-37.7634	499.788	27.3271
-37.76046	498.303	27.3662
-37.7576	494.803	27.4053
-37.7534	500.772	27.4443
-37.75034	493.771	27.4834
-37.7482	497.4964	27.5225
-37.7438	499.4689	27.5615
-37.7411	491.769	27.6006
-37.7386	496.592	27.6396
-37.7339	495.735	27.6787
-37.7309	490.825	27.7178
-37.7279	498.227	27.7568
-37.7246	492.233	27.7959
-37.7214	490.931	27.835
-37.7193	498.089	27.874
-37.71505	490.532	27.9131
-37.7117	495.109	27.9521
-37.7084	492.348	27.9912
-37.7046	493.803	28.0303
-37.7015	493.906	28.0693
-37.6994	490.999	28.1084
-37.6964	492.656	28.1475
-37.6921	493.496	28.1865
-37.6891	491.046	28.2256
-37.6858	495.753	28.2646
-37.6824	492.234	28.3037
-37.6784	491.0777	28.3428
-37.6764	498.968	28.3818
-37.6731	489.266	28.4209
-37.6693	493.962	28.46
-37.6674	497.093	28.499
-37.6628	489.868	28.5381
-37.6597	493.754	28.5771
-37.6557	492.324	28.6162
-37.65398	488.377	28.6553
-37.6497	494.499	28.6943
-37.6466	489.559	28.7334
-37.644	488.519	28.7725
-37.641	493.188	28.8115
-37.6369	481.951	28.8506
-37.633	489.113	28.8896
-37.6301	483.747	28.9287
-37.627	475.424	28.9678
-37.6239	480.859	29.0068
-37.6208	471.055	29.0459
-37.6178	465.094	29.085
-37.6147	464.252	29.124
-37.6091	-61.7829	29.1631
-37.606	-47.9097	29.2021
-37.6033	-43.47002	29.2412
-37.6008	-45.8319	29.2803
-37.5985	-43.76725	29.3193
-37.5933	-45.6133	29.3584
-37.5912	-43.4694	29.3975
-37.5868	-42.1469	29.4365
-37.584	-46.3018	29.4756
-37.581	-40.5527	29.5146
-37.5785	-44.9721	29.5537
-37.5759	-45.0001	29.5928
-37.5719	-40.2233	29.6318
-37.5684	-44.8827	29.6709
-37.5639	-44.0207	29.71
-37.562	-39.1278	29.749
-37.5588	-45.7371	29.7881
-37.5539	-39.895	29.8271
-37.5511	-41.5216	29.8662
-37.5487	-45.9127	29.9053
-37.5457	-39.3303	29.9443
-37.5418	-46.8801	29.9834
-37.5398	-43.724	30.0225
-37.5362	-42.1044	30.0615
-37.5325	-48.8802	30.1006
-37.5294	-42.5627	30.1396
-37.5262	-42.6931	30.1787
-37.5236	-47.4775	30.2178
-37.5198	-40.6716	30.2568
-37.5167	-45.1402	30.2959
-37.514	-47.7948	30.335
-37.5103	-39.5975	30.374
-37.5062	-47.2032	30.4131
-37.5021	-44.962	30.4521
-37.4998	-44.6465	30.4912
-37.497	-44.6499	30.5303
-37.4939	-43.1897	30.5693
-37.4894	-46.45956	30.6084
-37.487	-43.8843	30.6475
-37.4832	-43.2295	30.6865
-37.4812	-45.6537	30.7256
-37.4778	-40.0272	30.7646
-37.4726	-41.93504	30.8037
-37.4704	-47.4176	30.8428
-37.4673	-39.0036	30.8818
-37.465	-46.83543	30.9209
-37.461	-44.1392	30.96
-37.4579	-40.0518	30.999
-37.4547	-46.2914	31.0381
-37.4516	-41.01704	31.0771
-37.4484	-44.2755	31.1162
-37.4448	-45.4536	31.1553
-37.4419	-41.718	31.1943
-37.4385	-45.7615	31.2334