File: data/processed_data_files/tensile/0.254_solid_uprint_typeiv_090_r(6).dat
MTS793|BTW|ENU|1|2|.|/|:|1|0|0|A

Data Header:			0.254_solid_uprint_typeiv_090_r0			Time:	20.0254	s	4/14/2019 1:11:27 AM
Data Acquisition:	Timed
Station Name:	ft40.cfg
Test File Name:	monotonic_0.2540_typeiv_solid_090_uprint.tst
Displacement	Force	Running Time
mm	N	s
-40.0409	-154.082	0.0302734
-40.0391	-152.139	0.0986328
-40.0334	-149.6313	0.166992
-40.0273	-147.042	0.235352
-40.0221	-144.1418	0.303711
-40.0159	-143.646	0.37207
-40.0111	-140.915	0.44043
-40.0056	-134.32	0.508789
-39.9994	-125.78	0.577148
-39.9942	-123.934	0.645508
-39.9879	-118.477	0.713867
-39.9815	-115.026	0.782227
-39.977	-113.7	0.850586
-39.9707	-109.646	0.918945
-39.9644	-108.347	0.987305
-39.95916	-108.359	1.05566
-39.9527	-106.565	1.12402
-39.9478	-101.555	1.19238
-39.9416	-93.6836	1.26074
-39.93663	-90.0363	1.3291
-39.9314	-83.9408	1.39746
-39.9255	-80.3714	1.46582
-39.92	-78.7436	1.53418
-39.9132	-74.08094	1.60254
-39.9082	-70.8965	1.6709
-39.9029	-71.1738	1.73926
-39.8982	-71.3663	1.80762
-39.89003	-66.084	1.87598
-39.8857	-60.4577	1.94434
-39.8794	-56.50108	2.0127
-39.8734	-48.2045	2.08105
-39.8677	-43.6381	2.14941
-39.8619	-42.2556	2.21777
-39.85656	-38.1149	2.28613
-39.8507	-35.3247	2.35449
-39.8458	-35.6562	2.42285
-39.8406	-36.8259	2.49121
-39.8335	-30.1427	2.55957
-39.8281	-23.0994	2.62793
-39.82304	-22.7426	2.69629
-39.81678	-15.6186	2.76465
-39.8113	-9.51831	2.83301
-39.8052	-8.43151	2.90137
-39.8011	-5.07722	2.96973
-39.7945	1.91865	3.03809
-39.7888	1.384208	3.10645
-39.7834	-1.088732	3.1748
-39.7777	4.07303	3.24316
-39.7717	9.72809	3.31152
-39.7657	11.1063	3.37988
-39.7606	17.4761	3.44824
-39.7546	23.4894	3.5166
-39.7483	27.7123	3.58496
-39.74194	31.202	3.65332
-39.737	36.51112	3.72168
-39.7327	36.23925	3.79004
-39.72488	34.1385	3.8584
-39.7203	40.2845	3.92676
-39.71524	46.1915	3.99512
-39.7093	46.1137	4.06348
-39.7035	51.109	4.13184
-39.6959	56.1536	4.2002
-39.6905	61.0543	4.26855
-39.68631	67.66497	4.33691
-39.68111	73.0653	4.40527
-39.6749	71.7768	4.47363
-39.6694	72.2437	4.54199
-39.6635	75.7475	4.61035
-39.6574	80.2937	4.67871
-39.6531	78.6823	4.74707
-39.64682	83.92131	4.81543
-39.6407	91.0193	4.88379
-39.6357	95.1007	4.95215
-39.6294	101.211	5.02051
-39.62373	105.475	5.08887
-39.61882	106.172	5.15723
-39.6125	106.498	5.22559
-39.60614	111.272	5.29395
-39.6013	113.908	5.3623
-39.5954	116.635	5.43066
-39.59	119.628	5.49902
-39.5835	123.9192	5.56738
-39.5771	127.919	5.63574
-39.5722	135.877	5.7041
-39.5662	140.0374	5.77246
-39.5605	140.4187	5.84082
-39.5548	143.7924	5.90918
-39.5496	148.691	5.97754
-39.5444	150.059	6.0459
-39.5381	150.086	6.11426
-39.5329	153.172	6.18262
-39.5265	156.671	6.25098
-39.5219	159.752	6.31934
-39.5147	167.902	6.3877
-39.5091	173.2702	6.45605
-39.5036	172.976	6.52441
-39.4969	176.686	6.59277
-39.4932	181.448	6.66113
-39.4868	184.661	6.72949
-39.481	184.687	6.79785
-39.4761	188.253	6.86621
-39.4696	189.278	6.93457
-39.4641	191.404	7.00293
-39.458	199.03	7.07129
-39.4536	204.7934	7.13965
-39.4472	205.434	7.20801
-39.4418	207.424	7.27637
-39.4357	217.534	7.34473
-39.4297	218.9	7.41309
-39.4248	216.835	7.48145
-39.4185	220.396	7.5498
-39.413	222.411	7.61816
-39.4077	224.018	7.68652
-39.401	229.6646	7.75488
-39.3956	235.456	7.82324
-39.39069	236.003	7.8916
-39.3842	239.665	7.95996
-39.3794	249.695	8.02832
-39.3722	252.231	8.09668
-39.3675	250.457	8.16504
-39.3605	254.937	8.2334
-39.3555	254.497	8.30176
-39.3499	257.203	8.37012
-39.34428	260.57	8.43848
-39.33889	267.174	8.50684
-39.3336	267.644	8.5752
-39.3281	271.979	8.64355
-39.3217	280.395	8.71191
-39.3149	284.185	8.78027
-39.3101	283.845	8.84863
-39.3053	285.754	8.91699
-39.2985	289.197	8.98535
-39.293	289.368	9.05371
-39.2878	291.775	9.12207
-39.2819	298.609	9.19043
-39.2756	297.464	9.25879
-39.269	301.429	9.32715
-39.265	310.65	9.39551
-39.2594	314.52	9.46387
-39.2529	315.793	9.53223
-39.2484	318.834	9.60059
-39.2411	320.933	9.66895
-39.2358	322.3775	9.7373
-39.2297	321.837	9.80566
-39.2249	325.48	9.87402
-39.2185	326.9628	9.94238
-39.2133	331.455	10.0107
-39.2067	338.542	10.0791
-39.2025	343.324	10.1475
-39.1965	345.532	10.21582
-39.19146	349.097	10.28418
-39.1859	350.64	10.3525
-39.1801	351.685	10.4209
-39.1743	353.405	10.4893
-39.1689	353.404	10.5576
-39.162	353.15	10.626
-39.1566	358.675	10.6943
-39.1513	365.469	10.7627
-39.145	370.864	10.8311
-39.1394	375.244	10.8994
-39.1332	378.961	10.9678
-39.1287	379.475	11.0361
-39.1213	382.521	11.1045
-39.1161	381.912	11.1729
-39.1116	382.284	11.2412
-39.1051	382.4165	11.30957
-39.09956	385.794	11.37793
-39.0941	394.611	11.4463
-39.0876	396.321	11.5146
-39.0827	400.262	11.583
-39.0774	406.874	11.6514
-39.0709	405.178	11.7197
-39.06493	407.855	11.7881
-39.06031	410.2	11.8564
-39.05518	409.112	11.9248
-39.0481	407.963	11.9932
-39.0441	409.262	12.0615
-39.0361	418.124	12.1299
-39.0315	418.018	12.1982
-39.0255	423.911	12.2666
-39.0208	429.548	12.335
-39.0143	429.304	12.40332
-39.009	433.105	12.47168
-39.0032	434.7207	12.54
-38.997	432.081	12.6084
-38.9919	430.483	12.6768
-38.9867	433.225	12.7451
-38.98	438.97	12.8135
-38.974	438.289	12.8818
-38.96925	442.537	12.9502
-38.9632	448.857	13.0186
-38.95718	448.565	13.0869
-38.9521	451.721	13.1553
-38.9464	454.83	13.2236
-38.9407	452.678	13.292
-38.9343	447.441	13.3604
-38.9291	451.87	13.4287
-38.9228	455.499	13.49707
-38.918	452.618	13.56543
-38.9106	456.715	13.6338
-38.9056	461.6275	13.7021
-38.8996	462.767	13.7705
-38.8948	465.028	13.8389
-38.889	467.429	13.9072
-38.88237	465.991	13.9756
-38.87825	460.744	14.0439
-38.8717	462.757	14.1123
-38.866	464.63	14.1807
-38.86076	461.644	14.249
-38.8543	462.74	14.3174
-38.8495	467.171	14.3857
-38.8431	469.526	14.4541
-38.8382	470.924	14.5225
-38.832	472.706	14.59082
-38.8256	470.477	14.65918
-38.8209	467.845	14.7275
-38.8151	468.507	14.7959
-38.8094	466.446	14.8643
-38.803	465.726	14.9326
-38.79792	466.316	15.001
-38.793	466.555	15.0693
-38.7857	469.194	15.1377
-38.7804	470.257	15.2061
-38.7753	473.22	15.2744
-38.7689	470.756	15.3428
-38.76474	467.256	15.4111
-38.7561	468.2695	15.4795
-38.7522	466.014	15.5479
-38.74651	464.675	15.6162
-38.7416	462.197	15.68457
-38.7355	464.352	15.75293
-38.7285	463.63	15.8213
-38.7233	466.24	15.8896
-38.7177	467.735	15.958
-38.7119	465.393	16.0264
-38.7071	465.375	16.0947
-38.7002	464.6637	16.1631
-38.69524	463.521	16.2314
-38.6902	460.522	16.2998
-38.68425	459.153	16.3682
-38.6787	458.089	16.4365
-38.6721	458.543	16.5049
-38.6671	460.969	16.5732
-38.6607	460.615	16.6416
-38.6571	458.639	16.71
-38.64893	459.508	16.77832
-38.6435	462.184	16.84668
-38.6386	460.197	16.915
-38.6327	458.411	16.9834
-38.6277	455.585	17.0518
-38.6217	452.463	17.1201
-38.6161	455.041	17.1885
-38.6095	455.065	17.2568
-38.6048	454.011	17.3252
-38.5985	454.983	17.3936
-38.593	456.246	17.4619
-38.5862	457.389	17.5303
-38.5809	455.196	17.5986
-38.57526	455.374	17.667
-38.5695	454.168	17.7354
-38.5635	449.436	17.8037
-38.5591	448.861	17.87207
-38.5526	450.765	17.94043
-38.5479	448.504	18.0088
-38.54108	449.576	18.0771
-38.5354	453.311	18.1455
-38.529	456.773	18.2139
-38.5243	453.644	18.2822
-38.5184	452.749	18.3506
-38.51403	450.813	18.4189
-38.507	447.299	18.4873
-38.501	449.758	18.5557
-38.4954	448.649	18.624
-38.4893	445.858	18.6924
-38.4845	445.368	18.7607
-38.48	452.02	18.8291
-38.473	453.406	18.8975
-38.4665	451.437	18.96582
-38.46109	454.205	19.03418
-38.4553	452.1929	19.1025
-38.44994	450.121	19.1709
-38.4444	447.95	19.2393
-38.4388	446.497	19.3076
-38.4336	443.352	19.376
-38.4272	444.279	19.4443
-38.4226	450.674	19.5127
-38.416	452.993	19.5811
-38.4098	449.593	19.6494
-38.4048	452.573	19.7178
-38.3991	450.936	19.7861
-38.3929	447.912	19.8545
-38.386	447.4697	19.9229
-38.3821	445.856	19.9912
-38.3799	448.19	20.0205

Data Header:			0.254_solid_uprint_typeiv_090_r0			Time:	26.8816	s	4/14/2019 1:11:34 AM
Data Acquisition:	Timed
Station Name:	ft40.cfg
Test File Name:	monotonic_0.2540_typeiv_solid_090_uprint.tst
Displacement	Force	Running Time
mm	N	s
-38.3799	449.658	20.0303
-38.3762	441.112	20.05957
-38.3734	453.9191	20.0889
-38.37072	444.829	20.1182
-38.3689	451.191	20.1475
-38.3675	440.596	20.1768
-38.3638	449.145	20.2061
-38.3615	445.035	20.2354
-38.3591	446.132	20.2646
-38.3568	443.404	20.2939
-38.35453	447.062	20.3232
-38.3525	449.132	20.3525
-38.34898	443.02	20.3818
-38.347	445.619	20.4111
-38.3451	444.449	20.44043
-38.34267	451.582	20.4697
-38.3401	441.734	20.499
-38.3374	447.5231	20.52832
-38.3345	443.182	20.5576
-38.3314	448.958	20.5869
-38.3293	443.483	20.6162
-38.3275	447.424	20.6455
-38.32523	443.859	20.6748
-38.3214	446.148	20.7041
-38.3204	443.806	20.7334
-38.318	446.945	20.7627
-38.3147	445.696	20.792
-38.3136	444.503	20.8213
-38.3105	450.065	20.8506
-38.30809	444.037	20.8799
-38.3051	447.223	20.90918
-38.3032	440.67	20.9385
-38.3003	451.534	20.9678
-38.29784	443.368	20.99707
-38.2958	446.672	21.0264
-38.2936	442.522	21.0557
-38.2895	449.278	21.085
-38.2887	442.563	21.1143
-38.2854	443.908	21.1436
-38.2835	446.121	21.1729
-38.2799	447.088	21.2021
-38.27832	445.99	21.2314
-38.2768	442.026	21.2607
-38.27346	446.619	21.29
-38.271	443.174	21.3193
-38.2691	447.322	21.3486
-38.2663	441.4404	21.37793
-38.2634	449.842	21.4072
-38.2604	440.229	21.4365
-38.2593	446.8421	21.46582
-38.2567	438.524	21.4951
-38.2537	449.74	21.5244
-38.2513	442.365	21.5537
-38.2497	448.843	21.583
-38.2476	443.745	21.6123
-38.2443	445.56	21.6416
-38.24213	443.647	21.6709
-38.23938	443.8385	21.7002
-38.2379	447.516	21.7295
-38.2344	443.442	21.7588
-38.2319	449.1546	21.7881
-38.2299	442.284	21.8174
-38.227	449.14	21.84668
-38.22493	438.291	21.876
-38.2213	450.354	21.9053
-38.2195	441.53	21.93457
-38.2171	449.514	21.9639
-38.2149	438.555	21.9932
-38.212	447.376	22.0225
-38.211	442.608	22.0518
-38.2064	446.142	22.0811
-38.2049	442.471	22.1104
-38.2021	445.477	22.1396
-38.1997	445.107	22.1689
-38.1987	443.101	22.1982
-38.1969	441.738	22.2275
-38.1932	444.111	22.2568
-38.1911	447.8602	22.2861
-38.1882	439.357	22.31543
-38.1857	444.573	22.3447
-38.1838	440.938	22.374
-38.181	447.548	22.40332
-38.1782	439.19	22.4326
-38.1752	446.935	22.4619
-38.1732	442.171	22.4912
-38.1703	446.046	22.5205
-38.1688	441.643	22.5498
-38.165	444.389	22.5791
-38.1633	442.269	22.6084
-38.1614	443.348	22.6377
-38.1581	445.543	22.667
-38.1559	442.509	22.6963
-38.1546	443.325	22.7256
-38.1504	440.779	22.7549
-38.1498	447.774	22.78418
-38.1482	441.8	22.8135
-38.1436	444.544	22.8428
-38.1427	440.911	22.87207
-38.1413	448.6478	22.9014
-38.1369	440.626	22.9307
-38.1344	442.615	22.96
-38.1319	441.645	22.9893
-38.1304	447.488	23.0186
-38.1279	442.708	23.0479
-38.1245	441.126	23.0771
-38.1225	442.42	23.1064
-38.1203	442.21	23.1357
-38.1173	444.34	23.165
-38.1153	438.209	23.1943
-38.11274	448.093	23.2236
-38.1098	439.794	23.25293
-38.1066	446.599	23.2822
-38.1055	436.865	23.3115
-38.1032	446.084	23.34082
-38.1009	439.717	23.3701
-38.0983	444.154	23.3994
-38.095	439.681	23.4287
-38.093	446.091	23.458
-38.09082	440.5148	23.4873
-38.0883	442.983	23.5166
-38.0848	443.576	23.5459
-38.083	442.302	23.5752
-38.0811	444.555	23.6045
-38.0783	440.647	23.6338
-38.0762	446.1915	23.6631
-38.0737	437.91	23.6924
-38.0716	445.981	23.72168
-38.06834	439.8338	23.751
-38.066	448.6788	23.7803
-38.0646	436.157	23.80957
-38.06086	445.065	23.8389
-38.0585	437.981	23.8682
-38.0563	446.103	23.8975
-38.05365	436.289	23.9268
-38.051	444.93	23.9561
-38.0502	441.52	23.9854
-38.0473	441.008	24.0146
-38.045	437.693	24.0439
-38.0418	440.252	24.0732
-38.038	442.789	24.1025
-38.03743	438.457	24.1318
-38.03334	441.066	24.1611
-38.0322	437.413	24.19043
-38.0293	443.629	24.2197
-38.0274	435.081	24.249
-38.0247	441.831	24.27832
-38.0229	438.241	24.3076
-38.0198	443.662	24.3369
-38.0173	436.46	24.3662
-38.015	442.638	24.3955
-38.0121	437.395	24.4248
-38.0097	439.672	24.4541
-38.0076	438.324	24.4834
-38.0051	439.739	24.5127
-38.0022	437.256	24.542
-38.0006	436.083	24.5713
-37.99749	438.15	24.6006
-37.99585	436.383	24.6299
-37.9928	436.084	24.65918
-37.9893	430.673	24.6885
-37.9881	438.909	24.7178
-37.9855	72.2734	24.74707
-37.9821	-50.1541	24.7764
-37.9798	-47.8114	24.8057
-37.9775	-38.1492	24.835
-37.9747	-44.535	24.8643
-37.9718	-43.4983	24.8936
-37.971	-43.5751	24.9229
-37.9678	-41.8895	24.9521
-37.9656	-41.8875	24.9814
-37.96191	-44.762	25.0107
-37.9606	-38.9507	25.04
-37.9577	-44.4131	25.0693
-37.9565	-40.2423	25.0986
-37.9538	-47.3903	25.12793
-37.951	-39.4977	25.1572
-37.9487	-48.2015	25.1865
-37.9458	-38.0244	25.21582
-37.9439	-47.0519	25.2451
-37.9411	-38.3754	25.2744
-37.9387	-47.0192	25.3037
-37.9362	-41.6657	25.333
-37.9339	-42.2861	25.3623
-37.9322	-41.9059	25.3916
-37.92897	-42.4591	25.4209
-37.9264	-43.1537	25.4502
-37.9243	-39.95853	25.4795
-37.9219	-46.12368	25.5088
-37.92	-41.02319	25.5381
-37.9171	-46.1931	25.5674
-37.9146	-37.23624	25.59668
-37.9123	-48.0605	25.626
-37.9095	-38.7033	25.6553
-37.90807	-45.0135	25.68457
-37.9048	-39.2151	25.7139
-37.9028	-48.5118	25.7432
-37.8989	-39.3918	25.7725
-37.8973	-44.7854	25.8018
-37.8957	-40.6349	25.8311
-37.8928	-47.8554	25.8604
-37.8892	-42.4139	25.8896
-37.88866	-42.7761	25.9189
-37.8854	-42.7352	25.9482
-37.88348	-42.883	25.9775
-37.8804	-42.5252	26.0068
-37.8777	-41.2782	26.0361
-37.87508	-47.38839	26.06543
-37.8724	-40.2693	26.0947
-37.8709	-43.6678	26.124
-37.8688	-38.81786	26.15332
-37.8656	-46.3548	26.1826
-37.8623	-40.0077	26.2119
-37.8615	-46.1505	26.2412
-37.8576	-40.7075	26.2705
-37.8554	-45.0674	26.2998
-37.8542	-40.0935	26.3291
-37.8507	-44.53	26.3584
-37.8496	-42.4912	26.3877
-37.8458	-42.6525	26.417
-37.8451	-42.0467	26.4463
-37.8419	-42.3355	26.4756
-37.8378	-43.6718	26.5049
-37.8364	-37.5034	26.53418
-37.8334	-44.5178	26.5635
-37.8321	-42.6194	26.5928
-37.82933	-45.622	26.62207
-37.8269	-39.6035	26.6514
-37.8241	-43.9608	26.6807
-37.8223	-42.3542	26.71
-37.8197	-45.3005	26.7393
-37.817	-40.1135	26.7686
-37.8139	-44.8274	26.7979
-37.811	-45.5974	26.8271
-37.8096	-41.3826	26.8564
-37.8073	-49.6299	26.876