File: data/processed_data_files/tensile/0.254_hd_uprint_typei_4545_r(1).dat
MTS793|BTW|ENU|1|2|.|/|:|1|0|0|A

Data Header:			0.254_hd_uprint_typei_4545_r0			Time:	20.0178	s	4/15/2019 4:17:56 PM
Data Acquisition:	Timed
Station Name:	ft40.cfg
Test File Name:	monotonic_0.2540_typei_hd_4545_uprint.tst
Displacement	Force	Running Time
mm	N	s
9.98169	-199.092	0.0227051
9.98218	-196.05	0.0910645
9.98785	-189.703	0.159424
9.99365	-185.567	0.2277832
9.99877	-183.335	0.296143
10.0051	-183.97	0.364502
10.0111	-187.265	0.432861
10.01726	-192.94	0.5012207
10.0215	-195.935	0.56958
10.0284	-191.701	0.637939
10.0349	-188.382	0.706299
10.0392	-182.965	0.7746582
10.0448	-175.717	0.843018
10.0521	-171.136	0.911377
10.0571	-166.896	0.979736
10.0627	-164.71	1.0481
10.0674	-166.276	1.11646
10.07505	-171.708	1.18481
10.0801	-175.165	1.25317
10.0854	-171.657	1.32153
10.0911	-172.04	1.38989
10.0963	-167.867	1.458252
10.1018	-159.336	1.52661
10.1069	-154.281	1.59497
10.11323	-148.119	1.66333
10.1193	-143.373	1.73169
10.1242	-142.301	1.80005
10.1301	-149.2634	1.86841
10.1357	-150.807	1.93677
10.1423	-149.566	2.005127
10.14663	-149.749	2.07349
10.1523	-148.302	2.14185
10.1601	-141.256	2.21021
10.16418	-133.685	2.27856
10.1692	-129.298	2.34692
10.176	-122.735	2.41528
10.1822	-116.826	2.48364
10.1869	-121.823	2.552002
10.1933	-124.678	2.62036
10.1995	-124.804	2.68872
10.20458	-123.159	2.75708
10.2106	-124.88	2.82544
10.2153	-119.518	2.8938
10.2231	-110.296	2.96216
10.2278	-105.759	3.03052
10.2328	-99.2664	3.098877
10.2386	-93.8174	3.16724
10.2445	-93.3011	3.2356
10.2511	-96.1874	3.30396
10.2565	-94.4577	3.37231
10.2618	-94.6952	3.44067
10.268	-96.0679	3.50903
10.2725	-94.5321	3.57739
10.2778	-88.3951	3.645752
10.2836	-80.9809	3.71411
10.2893	-73.2045	3.78247
10.2961	-67.6242	3.85083
10.3013	-66.0784	3.91919
10.3069	-65.2818	3.98755
10.31335	-65.9734	4.05591
10.3182	-64.2317	4.12427
10.3237	-68.3647	4.192627
10.3294	-67.28138	4.26099
10.3359	-62.7359	4.32935
10.341	-58.584	4.39771
10.3465	-48.1562	4.46606
10.3526	-41.3527	4.53442
10.3579	-37.7356	4.60278
10.3628	-36.5123	4.67114
10.3695	-35.1248	4.739502
10.3759	-33.4902	4.80786
10.3808	-37.0539	4.87622
10.3869	-36.51844	4.94458
10.3926	-34.8642	5.01294
10.397	-31.0874	5.0813
10.4028	-23.7431	5.14966
10.4094	-14.54734	5.21802
10.4151	-11.2504	5.286377
10.4206	-8.308794	5.35474
10.425	-6.6842	5.4231
10.4318	-1.51188	5.49146
10.4379	-5.66384	5.55981
10.4429	-7.39178	5.62817
10.449	-3.91158	5.69653
10.455	-3.78385	5.76489
10.4601	3.96578	5.833252
10.4658	10.6692	5.90161
10.4718	16.9171	5.96997
10.4768	18.4258	6.03833
10.48325	24.0728	6.10669
10.489	29.02326	6.17505
10.49482	27.5027	6.24341
10.5006	23.9126	6.31177
10.5062	25.57729	6.380127
10.5119	27.7729	6.44849
10.5178	29.4162	6.51685
10.5227	37.865	6.58521
10.5283	44.8278	6.65356
10.534	48.14	6.72192
10.5412	53.6764	6.79028
10.545	61.0257	6.85864
10.5515	61.7348	6.927002
10.5573	58.8683	6.99536
10.563	58.0946	7.06372
10.5697	56.9673	7.13208
10.575	60.1348	7.20044
10.58	63.4935	7.2688
10.5864	70.4316	7.33716
10.592	75.7987	7.40552
10.5972	82.2031	7.473877
10.6038	89.0326	7.54224
10.6088	91.0518	7.6106
10.6147	90.5061	7.67896
10.6202	90.1914	7.74731
10.62569	88.9038	7.81567
10.6318	89.5204	7.88403
10.6378	95.0633	7.95239
10.64281	98.8613	8.020752
10.6489	102.572	8.08911
10.6537	111.1237	8.15747
10.6605	120.604	8.22583
10.6657	124.302	8.29419
10.6715	123.9953	8.36255
10.6771	125.976	8.43091
10.6822	123.13	8.49927
10.6881	121.151	8.567627
10.6949	125.855	8.63599
10.6988	127.491	8.70435
10.7051	131.319	8.77271
10.7113	136.99	8.84106
10.71707	148.127	8.90942
10.7227	153.317	8.97778
10.7281	153.203	9.04614
10.73394	156.283	9.114502
10.7403	154.275	9.18286
10.7458	153.154	9.25122
10.7519	152.873	9.31958
10.7573	157.306	9.38794
10.7619	159.643	9.4563
10.7692	162.642	9.52466
10.7746	173.748	9.59302
10.7801	183.19	9.661377
10.7848	184.513	9.72974
10.7908	186.174	9.7981
10.7962	188.3501	9.86646
10.803	184.856	9.93481
10.8086	184.242	10.0032
10.8135	187.638	10.0715
10.81918	189.786	10.1399
10.82534	191.862	10.2083
10.8318	198.866	10.2766
10.83639	209.794	10.345
10.842	214.136	10.41333
10.8478	216.189	10.4817
10.854	220.246	10.55
10.85915	218.466	10.6184
10.86424	219.087	10.6868
10.8708	217.427	10.7551
10.8763	217.214	10.8235
10.8808	219.557	10.8918
10.8873	223.993	10.9602
10.8931	235.883	11.0286
10.8989	242.832	11.0969
10.9042	247.668	11.1653
10.91011	251.874	11.2336
10.9158	251.428	11.302
10.9215	251.969	11.3704
10.928	251.84	11.4387
10.9336	246.656	11.50708
10.9396	247.615	11.5754
10.9438	251.2193	11.6438
10.95	261.013	11.7122
10.9555	268.222	11.7805
10.9617	275.898	11.8489
10.9671	281.218	11.9172
10.9733	283.061	11.9856
10.9779	285.269	12.054
10.98467	282.778	12.1223
10.991	280.281	12.1907
10.9961	277.368	12.259
11.0018	280.198	12.3274
11.0074	288.739	12.3958
11.0126	296.098	12.4641
11.0188	300.103	12.5325
11.0243	312.419	12.60083
11.0305	313.686	12.6692
11.0365	313.79	12.7375
11.0416	314.985	12.8059
11.047	314.485	12.8743
11.0529	307.402	12.9426
11.058	307.661	13.011
11.0645	314.797	13.0793
11.0699	321.848	13.1477
11.0758	326.521	13.2161
11.0813	335.771	13.2844
11.087	342.075	13.3528
11.0922	344.61	13.4211
11.0988	344.263	13.4895
11.1034	344.985	13.5579
11.1094	339.113	13.6262
11.1153	335.726	13.69458
11.1214	341.498	13.7629
11.1264	347.78	13.8313
11.1321	350.37	13.8997
11.1379	360.3876	13.968
11.1436	367.526	14.0364
11.1496	374.248	14.1047
11.155	376.093	14.1731
11.1619	376.759	14.2415
11.1669	372.072	14.3098
11.172	368.6532	14.3782
11.1784	370.071	14.4465
11.184	374.608	14.5149
11.1897	378.783	14.5833
11.1955	385.157	14.6516
11.2008	393.872	14.72
11.206	401.89	14.78833
11.212	405.283	14.8567
11.2171	404.864	14.925
11.2234	403.344	14.9934
11.2298	399.782	15.0618
11.2353	399.478	15.1301
11.24087	401.809	15.1985
11.2461	404.538	15.2668
11.2532	411.083	15.3352
11.25816	417.486	15.4036
11.2637	426.578	15.4719
11.2697	432.232	15.5403
11.2745	436.669	15.6086
11.2803	433.099	15.677
11.2861	430.73	15.7454
11.2916	430.246	15.8137
11.2974	430.5513	15.88208
11.3045	429.938	15.9504
11.3081	435.569	16.0188
11.315	443.44	16.0872
11.321	448.639	16.1555
11.3262	458.177	16.2239
11.3321	465.155	16.2922
11.3368	462.273	16.3606
11.3433	459.122	16.429
11.3494	459.127	16.4973
11.3543	461.16	16.5657
11.3609	457.589	16.634
11.3663	458.916	16.7024
11.3723	468.324	16.7708
11.3776	472.797	16.8391
11.3843	481.393	16.9075
11.38793	489.22	16.97583
11.3948	492.097	17.0442
11.3999	488.571	17.1125
11.4066	487.237	17.1809
11.41074	490.012	17.2493
11.4181	486.888	17.3176
11.4229	485.853	17.386
11.4288	492.152	17.4543
11.434	498.702	17.5227
11.44011	505.915	17.5911
11.4457	514.551	17.6594
11.4521	518.217	17.7278
11.4567	518.612	17.7961
11.4626	516.444	17.8645
11.4684	518.4588	17.9329
11.4745	516.575	18.0012
11.47938	515.653	18.06958
11.4858	517.895	18.1379
11.4906	520.647	18.2063
11.4971	528.796	18.2747
11.5023	535.9469	18.343
11.5093	542.236	18.4114
11.5134	543.8703	18.4797
11.5207	544.845	18.5481
11.5252	548.131	18.6165
11.5319	544.573	18.6848
11.5378	543.105	18.7532
11.5428	544.22	18.8215
11.5484	545.986	18.8899
11.5543	551.961	18.9583
11.5599	560.0777	19.0266
11.5656	565.692	19.095
11.5705	567.831	19.16333
11.5771	570.143	19.2317
11.5823	574.278	19.3
11.5889	572.964	19.3684
11.5932	569.004	19.4368
11.6001	570.057	19.5051
11.6059	569.284	19.5735
11.6115	571.799	19.6418
11.6165	580.389	19.7102
11.6227	587.388	19.7786
11.6283	591.117	19.8469
11.6333	594.776	19.9153
11.639	601.116	19.9836
11.6419	583.256	20.0129

Data Header:			0.254_hd_uprint_typei_4545_r0			Time:	40.019	s	4/15/2019 4:18:16 PM
Data Acquisition:	Timed
Station Name:	ft40.cfg
Test File Name:	monotonic_0.2540_typei_hd_4545_uprint.tst
Displacement	Force	Running Time
mm	N	s
11.6416	590.548	20.0227
11.6489	596.895	20.0911
11.6546	605.0755	20.1594
11.6605	609.828	20.2278
11.6651	611.566	20.2961
11.6709	609.417	20.3645
11.6773	606.973	20.4329
11.682	607.88	20.5012
11.6884	604.914	20.56958
11.6935	607.002	20.6379
11.7003	612.632	20.7063
11.7058	616.366	20.7747
11.7116	625.579	20.843
11.7163	631.723	20.9114
11.7224	635.01	20.9797
11.7275	634.524	21.0481
11.7338	632.759	21.1165
11.7392	635.119	21.1848
11.7452	630.891	21.2532
11.7512	630.418	21.3215
11.75636	635.97	21.3899
11.7616	637.922	21.4583
11.7678	644.93	21.5266
11.7743	653.539	21.595
11.7793	657.901	21.66333
11.7853	657.469	21.7317
11.7902	657.202	21.8
11.7962	660.793	21.8684
11.802	658.586	21.9368
11.8082	653.082	22.0051
11.814	655.852	22.0735
11.8196	658.886	22.1418
11.8249	664.377	22.2102
11.83	672.269	22.2786
11.8352	681.04	22.3469
11.8429	679.595	22.4153
11.84796	680.873	22.4836
11.8533	684.544	22.552
11.8592	683.454	22.6204
11.8634	678.962	22.6887
11.86991	678.686	22.75708
11.876	680.499	22.8254
11.8819	683.933	22.8938
11.8868	689.645	22.9622
11.89361	698.081	23.0305
11.8995	702.213	23.0989
11.9054	702.551	23.1672
11.9106	708.112	23.2356
11.9164	707.429	23.304
11.9219	703.515	23.3723
11.9276	702.318	23.4407
11.9336	701.191	23.509
11.939	704.9494	23.5774
11.9441	709.544	23.6458
11.9492	715.432	23.7141
11.9544	719.61	23.7825
11.9621	723.417	23.85083
11.9667	730.164	23.9192
11.9726	730.121	23.9875
11.9793	728.785	24.0559
11.9839	727.488	24.1243
11.9898	723.856	24.1926
11.9961	723.597	24.261
12.0015	728.669	24.3293
12.0068	733.347	24.3977
12.0134	735.524	24.4661
12.0181	742.207	24.5344
12.0243	749.658	24.6028
12.0305	751.388	24.6711
12.0353	748.837	24.7395
12.0412	748.768	24.8079
12.046	746.3551	24.8762
12.0532	743.4646	24.94458
12.0579	744.78	25.0129
12.0633	751.278	25.0813
12.06976	752.674	25.1497
12.07595	758.271	25.218
12.0811	766.786	25.2864
12.0867	771.628	25.3547
12.0925	770.3197	25.4231
12.0993	768.47	25.4915
12.1044	770.742	25.5598
12.1087	763.409	25.6282
12.1159	763.774	25.6965
12.1216	768.5545	25.7649
12.1271	768.214	25.8333
12.1339	772.36	25.9016
12.1384	781.304	25.97
12.1435	789.078	26.03833
12.1493	787.459	26.1067
12.1557	787.756	26.175
12.16114	787.109	26.2434
12.167	784.89	26.3118
12.1709	781.0946	26.3801
12.17723	783.334	26.4485
12.1826	784.792	26.5168
12.1902	785.709	26.5852
12.1947	793.599	26.6536
12.2009	801.943	26.7219
12.2074	805.8064	26.7903
12.2125	805.964	26.8586
12.2176	806.1889	26.927
12.2227	803.75	26.9954
12.2289	800.654	27.0637
12.2344	799.568	27.13208
12.2409	799.142	27.2004
12.246	802.005	27.2688
12.2511	807.385	27.3372
12.2571	815.167	27.4055
12.2637	820.236	27.4739
12.2689	821.746	27.5422
12.27491	821.795	27.6106
12.2808	819.0304	27.679
12.2871	817.935	27.7473
12.2909	817.704	27.8157
12.2976	813.078	27.884
12.3027	814.372	27.9524
12.3086	820.1369	28.0208
12.3147	827.426	28.0891
12.3205	829.7514	28.1575
12.3263	836.59	28.22583
12.3316	838.873	28.2942
12.3371	836.764	28.3625
12.3422	835.685	28.4309
12.3487	830.294	28.4993
12.3555	826.483	28.5676
12.361	824.747	28.636
12.36548	829.062	28.7043
12.3718	835.407	28.7727
12.3772	839.271	28.8411
12.3828	845.736	28.9094
12.3887	850.98	28.9778
12.39581	849.379	29.0461
12.4	849.64	29.1145
12.4049	848.504	29.1829
12.4118	841.495	29.2512
12.41705	837.525	29.31958
12.423	839.901	29.3879
12.4287	845.871	29.4563
12.4338	847.639	29.5247
12.4396	854.196	29.593
12.4456	860.949	29.6614
12.4515	860.464	29.7297
12.4574	859.931	29.7981
12.4636	857.973	29.8665
12.469	852.475	29.9348
12.474	848.948	30.0032
12.4812	847.906	30.0715
12.4855	853.913	30.1399
12.4912	854.322	30.2083
12.497	859.053	30.2766
12.5023	866.285	30.345
12.5085	868.574	30.41333
12.5139	870.144	30.4817
12.5201	868.454	30.55
12.5256	865.2356	30.6184
12.5314	858.678	30.6868
12.5371	856.872	30.7551
12.5412	862.426	30.8235
12.5482	860.719	30.8918
12.5533	865.39	30.9602
12.5605	870.332	31.0286
12.5647	873.271	31.0969
12.5718	878.327	31.1653
12.5765	877.253	31.2336
12.583	873.146	31.302
12.588	869.6048	31.3704
12.5935	866.884	31.4387
12.5992	866.727	31.50708
12.6052	865.534	31.5754
12.6111	871.0802	31.6438
12.6172	874.187	31.7122
12.6223	877.163	31.7805
12.6288	882.29	31.8489
12.6331	883.588	31.9172
12.6388	879.927	31.9856
12.6452	877.252	32.054
12.6506	874.7171	32.1223
12.6561	873.638	32.1907
12.6618	871.353	32.259
12.6674	873.536	32.3274
12.6735	876.773	32.3958
12.6794	877.694	32.4641
12.6855	884.305	32.5325
12.6912	888.827	32.60083
12.6961	885.699	32.6692
12.7018	882.4704	32.7375
12.7074	884.652	32.8059
12.7121	881.208	32.8743
12.7183	874.888	32.9426
12.7252	875.408	33.011
12.7304	879.178	33.0793
12.7358	881.138	33.1477
12.742	886.395	33.2161
12.74783	892.951	33.2844
12.7532	890.683	33.3528
12.7589	887.281	33.4211
12.7646	888.582	33.4895
12.7708	889.074	33.5579
12.777	880.332	33.6262
12.7803	880.803	33.69458
12.78774	881.454	33.7629
12.7932	882.286	33.8313
12.7991	886.405	33.8997
12.8048	890.93	33.968
12.8101	894.119	34.0364
12.81634	890.663	34.1047
12.822	892.723	34.1731
12.8274	892.498	34.2415
12.8318	886.878	34.3098
12.8389	883.337	34.3782
12.84455	883.992	34.4465
12.8495	884.202	34.5149
12.8556	886.8327	34.5833
12.8607	891.506	34.6516
12.8679	893.895	34.72
12.8731	895.9541	34.78833
12.8777	895.7207	34.8567
12.8842	898.254	34.925
12.8894	893.123	34.9934
12.8942	889.397	35.0618
12.902	886.854	35.1301
12.90675	886.107	35.1985
12.9128	887.694	35.2668
12.9184	890.838	35.3352
12.924	896.259	35.4036
12.9295	895.738	35.4719
12.93513	900.012	35.5403
12.9413	902.461	35.6086
12.9462	897.142	35.677
12.95282	895.8504	35.7454
12.958	892.751	35.8137
12.9642	888.357	35.88208
12.9701	890.391	35.9504
12.9757	891.85	36.0188
12.9815	891.868	36.0872
12.9865	895.201	36.1555
12.99292	900.789	36.2239
12.99753	904.861	36.2922
13.0041	901.7666	36.3606
13.0091	900.511	36.429
13.0151	895.935	36.4973
13.0201	890.522	36.5657
13.0262	891.915	36.634
13.033	892.734	36.7024
13.0381	891.331	36.7708
13.04376	893.535	36.8391
13.0492	901.676	36.9075
13.0551	904.905	36.97583
13.0613	901.5412	37.0442
13.0658	902.005	37.1125
13.0729	902.401	37.1809
13.07838	894.363	37.2493
13.0839	892.591	37.3176
13.0889	894.293	37.386
13.0949	893.439	37.4543
13.1002	893.519	37.5227
13.1063	899.721	37.5911
13.1121	907.175	37.6594
13.11862	905.737	37.7278
13.1232	905.187	37.7961
13.1282	904.179	37.8645
13.1349	900.0177	37.9329
13.1405	896.636	38.0012
13.14634	895.202	38.06958
13.1515	892.712	38.1379
13.1568	892.244	38.2063
13.1633	896.671	38.2747
13.1693	906.436	38.343
13.1746	907.409	38.4114
13.1799	907.521	38.4797
13.1857	906.051	38.5481
13.1912	903.928	38.6165
13.198	900.187	38.6848
13.2029	896.647	38.7532
13.2087	893.555	38.8215
13.2151	892.846	38.8899
13.2204	896.167	38.9583
13.2263	905.25	39.0266
13.232	906.558	39.095
13.2376	907.468	39.16333
13.2432	907.669	39.2317
13.2489	906.238	39.3
13.2555	905.788	39.3684
13.2602	901.516	39.4368
13.2659	896.074	39.5051
13.2722	893.34	39.5735
13.2772	897.612	39.6418
13.2831	900.6048	39.7102
13.2892	904.43	39.7786
13.29406	908.261	39.8469
13.3009	911.13	39.9153
13.3052	908.603	39.9836
13.3091	895.542	40.0129

Data Header:			0.254_hd_uprint_typei_4545_r0			Time:	60.0176	s	4/15/2019 4:18:36 PM
Data Acquisition:	Timed
Station Name:	ft40.cfg
Test File Name:	monotonic_0.2540_typei_hd_4545_uprint.tst
Displacement	Force	Running Time
mm	N	s
13.3099	899.455	40.0227
13.3142	901.22	40.0911
13.321	909.294	40.1594
13.3265	911.493	40.2278
13.3316	908.963	40.2961
13.33648	908.193	40.3645
13.34267	903.854	40.4329
13.3484	901.069	40.5012
13.3544	898.393	40.56958
13.3598	898.1076	40.6379
13.3656	896.885	40.7063
13.3722	899.926	40.7747
13.3771	907.232	40.843
13.3828	909.632	40.9114
13.3881	911.233	40.9797
13.3933	910.318	41.0481
13.399	907.906	41.1165
13.4053	901.85	41.1848
13.4116	901.076	41.2532
13.41622	897.985	41.3215
13.4231	896.06	41.3899
13.4291	899.514	41.4583
13.4346	904.587	41.5266
13.4394	907.411	41.595
13.4457	911.0163	41.66333
13.4509	913.559	41.7317
13.457	910.463	41.8
13.463	906.367	41.8684
13.468	903.714	41.9368
13.4741	900.242	42.0051
13.4804	894.62	42.0735
13.4855	896.818	42.1418
13.4915	903.058	42.2102
13.4982	908.025	42.2786
13.503	909.387	42.3469
13.50886	911.7901	42.4153
13.5138	915.588	42.4836
13.5203	907.5744	42.552
13.5253	906.653	42.6204
13.531	903.187	42.6887
13.5368	899.091	42.75708
13.5416	895.111	42.8254
13.5488	901.852	42.8938
13.5544	905.054	42.9622
13.5594	905.853	43.0305
13.565	910.368	43.0989
13.5703	913.005	43.1672
13.576	911.728	43.2356
13.5816	908.008	43.304
13.5881	905.507	43.3723
13.594	899.842	43.4407
13.6002	896.384	43.509
13.6053	899.398	43.5774
13.611	903.22	43.6458
13.6157	904.429	43.7141
13.6228	909.755	43.7825
13.6273	912.961	43.85083
13.6325	912.289	43.9192
13.6398	910.776	43.9875
13.645	908.776	44.0559
13.651	903.613	44.1243
13.6568	897.621	44.1926
13.6625	898.907	44.261
13.6681	902.366	44.3293
13.6721	904.301	44.3977
13.679	908.867	44.4661
13.6847	911.485	44.5344
13.6899	913.959	44.6028
13.6961	912.7287	44.6711
13.7021	909.7804	44.7395
13.7078	904.259	44.8079
13.71335	898.9939	44.8762
13.7189	900.361	44.94458
13.7241	900.64	45.0129
13.7301	905.222	45.0813
13.7364	906.407	45.1497
13.7426	910.29	45.218
13.7479	912.9743	45.2864
13.7535	915.128	45.3547
13.7595	912.567	45.4231
13.7643	907.586	45.4915
13.7717	902.897	45.5598
13.776	903.498	45.6282
13.7819	902.023	45.6965
13.7877	899.862	45.7649
13.7927	904.803	45.8333
13.7983	907.519	45.9016
13.805	910.408	45.97
13.8099	914.062	46.03833
13.81608	913.695	46.1067
13.8216	909.668	46.175
13.8279	904.024	46.2434
13.8326	904.244	46.3118
13.8377	903.0802	46.3801
13.8445	900.124	46.4485
13.8507	900.4552	46.5168
13.856	907.604	46.5852
13.8608	906.773	46.6536
13.8679	911.833	46.7219
13.8729	914.904	46.7903
13.878	911.047	46.8586
13.8836	906.147	46.927
[...]
14.7435	910.483	57.2488
14.7486	908.399	57.3171
14.7545	903.946	57.3855
14.7607	900.138	57.4539
14.7648	897.012	57.5222
14.7717	897.286	57.5906
14.7772	898.596	57.6589
14.7829	900.475	57.7273
14.789	902.077	57.7957
14.7933	906.218	57.864
14.8005	910.079	57.9324
14.8058	908.306	58.0007
14.8109	906.42	58.0691
14.8171	904.493	58.1375
14.8225	898.937	58.2058
14.828	896.6106	58.27417
14.8331	899.672	58.3425
14.83952	899.649	58.4109
14.8445	899.774	58.4792
14.8515	903.296	58.5476
14.8569	909.519	58.616
14.8621	909.198	58.6843
14.86871	906.194	58.7527
14.8739	905.653	58.821
14.8799	900.064	58.8894
14.8849	896.938	58.9578
14.891	898.977	59.0261
14.89654	900.104	59.0945
14.90276	895.916	59.1628
14.9081	899.488	59.2312
14.914	907.7735	59.2996
14.919	907.917	59.36792
14.9254	905.72	59.4363
14.93	906.37	59.5046
14.93658	903.912	59.573
14.94238	900.455	59.6414
14.9477	898.256	59.7097
14.9537	899.634	59.7781
14.9587	896.517	59.8464
14.9654	896.025	59.9148
14.9701	904.243	59.9832
14.9737	901.517	60.0125

Data Header:			0.254_hd_uprint_typei_4545_r0			Time:	80.01709	s	4/15/2019 4:21:35 PM
Data Acquisition:	Timed
Station Name:	ft40.cfg
Test File Name:	monotonic_0.2540_typei_hd_4545_uprint.tst
Displacement	Force	Running Time
mm	N	s
14.9752	899.114	60.0222
14.9795	894.502	60.0906
14.9853	898.471	60.1589
14.9917	902.8	60.2273
14.9968	904.845	60.2957
15.0035	902.977	60.364
15.00818	905.566	60.4324
15.0155	910.737	60.5007
15.0191	905.19	60.5691
15.0247	901.79	60.6375
15.0313	898.796	60.7058
15.03569	896.904	60.77417
15.043	895.077	60.8425
15.04802	899.587	60.9109
15.0544	902.24	60.9792
15.0593	902.421	61.0476
15.0652	904.823	61.116
15.0708	910.118	61.1843
15.0766	908.722	61.2527
15.0823	903.009	61.321
15.0874	901.503	61.3894
15.0939	899.403	61.4578
15.1	894.972	61.5261
15.1057	897.5625	61.5945
15.111	899.647	61.6628
15.1161	900.724	61.7312
15.1225	902.694	61.7996
15.1274	908.128	61.86792
15.1335	906.984	61.9363
15.139	904.084	62.0046
15.1451	901.618	62.073
15.1519	900.618	62.1414
15.1562	896.904	62.2097
15.1622	898.127	62.2781
15.1679	896.921	62.3464
15.1735	898.45	62.4148
15.1798	901.281	62.4832
15.1838	906.657	62.5515
15.1898	907.186	62.6199
15.1955	906.087	62.6882
15.2022	906.011	62.7566
15.2077	901.805	62.825
15.2143	898.685	62.8933
15.2187	897.9043	62.96167
15.2244	896.791	63.03
15.2311	896.688	63.0984
15.2365	898.626	63.1667
15.2423	905.397	63.2351
15.2479	907.605	63.3035
15.2538	907.777	63.3718
15.2587	907.585	63.4402
15.26299	904.211	63.5085
15.2698	899.695	63.5769
15.27706	899.48	63.6453
15.2818	896.654	63.7136
15.2878	895.219	63.782
15.2932	895.157	63.8503
15.2985	903.01	63.9187
15.30407	904.628	63.9871
15.3104	905.896	64.05542
15.3164	907.228	64.1238
15.3219	907.177	64.1921
15.3268	901.137	64.2605
15.3322	899.304	64.3289
15.339	897.542	64.3972
15.34431	892.789	64.4656
15.3505	892.444	64.5339
15.3561	899.199	64.6023
15.3622	903.302	64.6707
15.3669	904.16	64.739
15.3725	905.57	64.8074
15.3776	908.074	64.8757
15.3843	903.774	64.9441
15.3904	901.101	65.0125
15.3955	900.2746	65.0808
15.4012	895.99	65.14917
15.4066	892.094	65.2175
15.4132	896.445	65.2859
15.4184	903.089	65.3542
15.4241	903.4668	65.4226
15.4292	906.216	65.491
15.4352	907.611	65.5593
15.4409	905.297	65.6277
15.4472	904.384	65.696
15.4521	899.819	65.7644
15.45747	896.566	65.8328
15.4632	893.631	65.9011
15.4689	894.101	65.9695
15.4745	898.384	66.0378
15.4812	902.185	66.1062
15.4877	905.897	66.1746
15.4926	906.299	66.24292
15.4978	905.464	66.3113
15.5037	907.127	66.3796
15.5096	905.745	66.448
15.5155	899.49	66.5164
15.5212	893.587	66.5847
15.5265	894.4	66.6531
15.5327	897.426	66.7214
15.5386	896.794	66.7898
15.5433	902.894	66.8582
15.5481	906.658	66.9265
15.5545	905.284	66.9949
15.5605	907.81	67.0632
15.5669	905.28	67.1316
15.5713	902.368	67.2
15.5771	895.112	67.2683
15.5835	893.635	67.33667
15.589	895.361	67.405
15.5953	894.075	67.4734
15.6016	898.356	67.5417
15.6055	903.964	67.6101
15.6123	905.082	67.6785
15.61861	905.002	67.7468
15.623	908.608	67.8152
15.629	905.229	67.8835
15.6348	896.233	67.9519
15.6395	893.584	68.0203
15.6457	895.698	68.0886
15.65178	893.994	68.157
15.6578	894.7782	68.2253
15.6618	901.1369	68.2937
15.6697	904.13	68.3621
15.67389	906.164	68.43042
15.6804	907.533	68.4988
15.6856	906.688	68.5671
15.6909	899.335	68.6355
15.6959	895.445	68.7039
15.7035	896.7149	68.7722
15.70859	895.194	68.8406
15.7145	894.95	68.9089
15.7198	897.793	68.9773
15.72619	901.452	69.0457
15.7312	905.389	69.114
15.7379	909.039	69.1824
15.7433	907.149	69.2507
15.7489	902.549	69.3191
15.7539	897.66	69.3875
15.7602	897.107	69.4558
15.766	894.034	69.52417
15.7713	895.327	69.5925
15.7764	894.839	69.6609
15.7826	898.349	69.7292
15.7888	904.179	69.7976
15.7939	907.92	69.866
15.80063	908.108	69.9343
15.8051	903.815	70.0027
15.8109	901.368	70.071
15.8173	900.5545	70.1394
15.823	895.373	70.2078
15.8288	893.718	70.2761
15.8344	895.0752	70.3445
15.84023	897.433	70.4128
15.8452	899.074	70.4812
15.8509	906.308	70.5496
15.8567	907.978	70.61792
15.86447	904.222	70.6863
15.8678	901.684	70.7546
15.8731	902.946	70.823
15.8803	898.07	70.8914
15.8856	893.624	70.9597
15.8914	894.781	71.0281
15.8967	893.799	71.0964
15.9024	898.256	71.1648
15.9083	900.191	71.2332
15.9139	906.496	71.3015
15.9197	904.0097	71.3699
15.92484	902.945	71.4382
15.9308	904.3175	71.5066
15.9372	901.775	71.575
15.9432	894.129	71.6433
15.948	894.65	71.71167
15.9534	894.631	71.78
15.9596	893.478	71.8484
15.9651	897.531	71.9167
15.97127	903.638	71.9851
15.9777	903.9624	72.0535
15.9831	901.518	72.1218
15.9884	904.945	72.1902
15.9937	900.3302	72.2585
15.9993	895.846	72.3269
16.0045	893.223	72.3953
16.0116	892.418	72.4636
16.0165	892.534	72.532
16.0226	895.3476	72.6003
16.0278	898.771	72.6687
16.0334	901.1153	72.7371
16.0394	900.419	72.80542
16.04394	902.182	72.8738
16.0513	903.415	72.9421
16.0561	898.092	73.0105
16.0622	895.047	73.0789
16.06813	892.427	73.1472
16.0738	892.194	73.2156
16.0792	893.069	73.2839
16.0845	895.451	73.3523
16.09	896.3255	73.4207
16.0967	899.1731	73.489
16.10224	903.548	73.5574
16.1078	902.698	73.6257
16.1128	898.609	73.6941
16.119	897.259	73.7625
16.12492	893.569	73.8308
16.13	890.768	73.89917
16.1367	892.3653	73.9675
16.1411	892.989	74.0359
16.1469	892.17	74.1042
16.1541	896.186	74.1726
16.1589	902.871	74.241
16.1652	902.343	74.3093
16.1704	899.264	74.3777
16.1751	898.2049	74.446
16.1818	894.213	74.5144
16.1874	889.551	74.5828
16.1931	891.1651	74.6511
16.1988	892.026	74.7195
16.2041	891.705	74.7878
16.2108	892.461	74.8562
16.2164	900.515	74.9246
16.2215	903.113	74.99292
16.2262	899.564	75.0613
16.2328	899.189	75.1296
16.2381	896.468	75.198
16.2439	892.307	75.2664
16.2506	890.7793	75.3347
16.2561	890.493	75.4031
16.2605	888.5434	75.4714
16.26829	889.038	75.5398
16.2729	896.616	75.6082
16.2798	900.87	75.6765
16.2844	899.4986	75.7449
16.28875	899.433	75.8132
16.2958	898.555	75.8816
16.3005	893.3775	75.95
16.3074	889.91	76.0183
16.3121	888.347	76.08667
16.318	885.089	76.155
16.3248	886.18	76.2234
16.33	891.696	76.2917
16.3349	895.3988	76.3601
16.3417	896.678	76.4285
16.3472	897.737	76.4968
16.3533	895.471	76.5652
16.3578	894.019	76.6335
16.3646	891.167	76.7019
16.3704	886.421	76.7703
16.3751	881.1662	76.8386
16.38093	880.92	76.907
16.3863	884.948	76.9753
16.3924	888.51	77.0437
16.3986	890.511	77.1121
16.4033	893.854	77.18042
16.4093	892.1637	77.2488
16.4151	889.6922	77.3171
16.4216	886.413	77.3855
16.4329	-92.1528	77.4539
16.4347	-55.6259	77.5222
16.4386	-57.8428	77.5906
16.4444	-54.0486	77.6589
16.4502	-50.4456	77.7273
16.4562	-47.3096	77.7957
16.4601	-42.6917	77.864
16.46699	-39.6136	77.9324
16.4729	-41.968	78.0007
16.4783	-43.245	78.0691
16.4837	-45.4735	78.1375
16.4901	-52.5787	78.2058
16.4945	-57.6701	78.27417
16.5002	-54.8202	78.3425
16.5069	-51.6309	78.4109
16.5124	-51.175	78.4792
16.5179	-45.8887	78.5476
16.5237	-42.6603	78.616
16.5297	-42.9729	78.6843
16.5354	-42.197	78.7527
16.5408	-43.9524	78.821
16.5462	-48.967	78.8894
16.5517	-57.403	78.9578
16.5584	-54.5879	79.0261
16.563	-52.2789	79.0945
16.5695	-54.6572	79.1628
16.5754	-48.7884	79.2312
16.5818	-43.3919	79.2996
16.5859	-42.055	79.36792
16.5926	-42.3304	79.4363
16.59782	-41.6964	79.5046
16.60334	-48.411	79.573
16.6084	-54.0732	79.6414
16.6146	-54.6281	79.7097
16.62063	-55.4186	79.7781
16.6262	-56.8455	79.8464
16.6312	-52.9684	79.9148
16.63751	-47.0253	79.9832
16.6401	-48.8067	80.0125

Data Header:			0.254_hd_uprint_typei_4545_r0			Time:	80.073	s	4/15/2019 4:21:35 PM
Data Acquisition:	Timed
Station Name:	ft40.cfg
Test File Name:	monotonic_0.2540_typei_hd_4545_uprint.tst
Displacement	Force	Running Time
mm	N	s
16.6405	-52.118	80.0222
16.6423	-54.9096	80.032
16.6431	-52.4815	80.0417
16.6443	-44.8998	80.0515
16.6444	-41.93708	80.0613