File: data/processed_data_files/tensile/0.254_solid_uprint_typeiv_090_r(7).dat
MTS793|BTW|ENU|1|2|.|/|:|1|0|0|A

Data Header:			0.254_solid_uprint_typeiv_090_r0			Time:	20.0173	s	4/14/2019 1:14:07 AM
Data Acquisition:	Timed
Station Name:	ft40.cfg
Test File Name:	monotonic_0.2540_typeiv_solid_090_uprint.tst
Displacement	Force	Running Time
mm	N	s
-40.0408	-30.5304	0.0222168
-40.0409	-29.62788	0.0905762
-40.0348	-24.1626	0.158936
-40.0301	-18.62421	0.227295
-40.0243	-14.6338	0.2956543
-40.0183	-8.59791	0.364014
-40.0136	-5.13887	0.432373
-40.0061	-4.26116	0.500732
-40.0009	0.109407	0.5690918
-39.9955	0.410625	0.637451
-39.9901	1.16959	0.705811
-39.9842	5.33428	0.77417
-39.9781	11.0395	0.8425293
-39.9724	12.7324	0.910889
-39.966	21.5614	0.979248
-39.9608	25.6342	1.04761
-39.956	29.3758	1.11597
-39.9505	33.7501	1.18433
-39.9446	36.6845	1.25269
-39.9377	36.4214	1.32104
-39.9317	38.1559	1.3894
-39.92701	42.06007	1.45776
-39.9213	45.771	1.526123
-39.9158	47.965	1.59448
-39.9102	54.04097	1.66284
-39.9042	59.0733	1.7312
-39.8985	64.6272	1.79956
-39.8933	69.922	1.86792
-39.8865	72.6937	1.93628
-39.8817	70.5674	2.00464
-39.8752	73.2556	2.072998
-39.8701	78.0096	2.14136
-39.8638	78.0038	2.20972
-39.858	82.2955	2.27808
-39.8542	86.8009	2.34644
-39.8462	90.715	2.41479
-39.8427	98.4363	2.48315
-39.836	103.268	2.55151
-39.8299	105.421	2.619873
-39.82436	105.472	2.68823
-39.8189	109.017	2.75659
-39.8129	111.514	2.82495
-39.8069	112.529	2.89331
-39.8013	117.059	2.96167
-39.7962	121.094	3.03003
-39.7902	123.108	3.09839
-39.7834	130.583	3.166748
-39.7792	137.388	3.23511
-39.7731	138.013	3.30347
-39.7675	140.496	3.37183
-39.7618	144.709	3.44019
-39.7559	146.757	3.50854
-39.7507	145.638	3.5769
-39.7445	149.487	3.64526
-39.7398	151.5899	3.713623
-39.734	156.569	3.78198
-39.7271	162.278	3.85034
-39.7235	168.12	3.9187
-39.716	167.445	3.98706
-39.7109	172.674	4.05542
-39.7046	179.094	4.12378
-39.6997	179.13	4.19214
-39.6941	179.365	4.260498
-39.688	183.178	4.32886
-39.6817	183.113	4.39722
-39.6764	187.817	4.46558
-39.6712	195.335	4.53394
-39.6664	198.353	4.60229
-39.6593	199.651	4.67065
-39.6527	206.216	4.73901
-39.6479	212.785	4.807373
-39.6414	211.084	4.87573
-39.63599	213.151	4.94409
-39.63	215.155	5.01245
-39.6254	214.605	5.08081
-39.6198	218.343	5.14917
-39.6133	224.189	5.21753
-39.6072	227.319	5.28589
-39.6019	229.285	5.354248
-39.5964	238.152	5.42261
-39.5912	242.956	5.49097
-39.5864	241.723	5.55933
-39.5793	246.438	5.62769
-39.57259	248.467	5.69604
-39.5691	249.0903	5.7644
-39.5617	251.973	5.83276
-39.5575	255.571	5.901123
-39.5523	254.879	5.96948
-39.545	259.643	6.03784
-39.5397	269.959	6.1062
-39.5342	271.383	6.17456
-39.5282	274.189	6.24292
-39.5233	278.47	6.31128
-39.5163	280.138	6.37964
-39.5099	280.749	6.447998
-39.5051	284.31	6.51636
-39.49968	284.349	6.58472
-39.4937	283.785	6.65308
-39.489	288.903	6.72144
-39.4831	297.192	6.78979
-39.4775	298.4808	6.85815
-39.4711	303.84	6.92651
-39.4666	307.686	6.994873
-39.4597	308.374	7.06323
-39.4555	311.288	7.13159
-39.4486	310.88	7.19995
-39.44244	312.664	7.26831
-39.4361	311.613	7.33667
-39.4315	318.149	7.40503
-39.4259	322.542	7.47339
-39.4201	326.034	7.541748
-39.4149	331.803	7.61011
-39.4077	335.544	7.67847
-39.4025	338.155	7.74683
-39.3966	341.537	7.81519
-39.391	340.406	7.88354
-39.3847	338.241	7.9519
-39.3799	338.526	8.02026
-39.3737	346.906	8.088623
-39.368	348.448	8.15698
-39.3637	351.052	8.22534
-39.3575	357.231	8.2937
-39.35133	359.775	8.36206
-39.3465	365.18	8.43042
-39.3404	367.113	8.49878
-39.3344	367.049	8.56714
-39.3302	365.921	8.635498
-39.3224	366.837	8.70386
-39.3186	371.662	8.77222
-39.3119	371.306	8.84058
-39.30508	375.652	8.90894
-39.30077	379.849	8.97729
-39.2942	383.418	9.04565
-39.28923	390.1492	9.11401
-39.2826	391.572	9.182373
-39.278	391.9122	9.25073
-39.2723	390.384	9.31909
-39.2663	393.033	9.38745
-39.2611	394.0119	9.45581
-39.2554	394.899	9.52417
-39.2483	396.9	9.59253
-39.2439	400.843	9.66089
-39.2378	405.395	9.729248
-39.2318	411.176	9.79761
-39.226	413.316	9.86597
-39.2211	413.8096	9.93433
-39.2161	412.411	10.0027
-39.2099	415.4014	10.071
-39.2047	413.551	10.1394
-39.1972	412.642	10.2078
-39.1924	417.1022	10.2761
-39.1868	417.956	10.3445
-39.1813	423.903	10.4128
-39.1754	427.626	10.4812
-39.1689	426.5741	10.5496
-39.1627	427.819	10.61792
-39.1581	430.837	10.6863
-39.153	432.089	10.7546
-39.1469	428.405	10.823
-39.1409	428.2	10.8914
-39.1351	429.318	10.9597
-39.13031	426.938	11.0281
-39.1235	432.571	11.0964
-39.1191	436.393	11.1648
-39.11343	434.398	11.2332
-39.1073	435.653	11.3015
-39.1009	440.765	11.3699
-39.0953	439.739	11.4382
-39.0896	434.6004	11.5066
-39.0847	434.59	11.575
-39.0787	434.586	11.6433
-39.0727	433.758	11.71167
-39.0685	436.704	11.78
-39.0609	438.537	11.8484
-39.0557	436.081	11.9167
-39.049	438.293	11.9851
-39.0441	444.71	12.0535
-39.039	442.402	12.1218
-39.0321	438.2356	12.1902
-39.0278	439.4133	12.2585
-39.0211	437.836	12.3269
-39.016	435.013	12.3953
-39.011	437.108	12.4636
-39.0046	437.147	12.532
-38.9981	435.146	12.6003
-38.993	437.14	12.6687
-38.9861	442.579	12.7371
-38.9807	439.985	12.80542
-38.9758	440.144	12.8738
-38.9692	439.721	12.9421
-38.9641	435.702	13.0105
-38.9585	434.087	13.0789
-38.952	434.363	13.1472
-38.948	432.073	13.2156
-38.942	430.955	13.2839
-38.93565	433.408	13.3523
-38.9306	437.982	13.4207
-38.9241	434.83	13.489
-38.9185	435.752	13.5574
-38.9139	437.0275	13.6257
-38.9076	433.413	13.6941
-38.9018	430.68	13.7625
-38.8962	430.9429	13.8308
-38.8896	426.857	13.89917
-38.8844	426.12	13.9675
-38.87886	430.373	14.0359
-38.8726	432	14.1042
-38.8686	431.259	14.1726
-38.8622	431.262	14.241
-38.8567	432.919	14.3093
-38.8512	432.239	14.3777
-38.8449	429.398	14.446
-38.8387	427.04	14.5144
-38.8337	424.148	14.5828
-38.8278	422.685	14.6511
-38.822	428.034	14.7195
-38.8166	427.23	14.7878
-38.811	427.3678	14.8562
-38.8035	428.669	14.9246
-38.79847	429.872	14.99292
-38.7939	431.035	15.0613
-38.7889	429.719	15.1296
-38.7819	425.126	15.198
-38.7764	420.713	15.2664
-38.7714	420.162	15.3347
-38.7655	423.08	15.4031
-38.759	421.641	15.4714
-38.7529	424.317	15.5398
-38.7485	427.267	15.6082
-38.7413	427.55	15.6765
-38.7382	428.7247	15.7449
-38.7311	429.061	15.8132
-38.7254	426.231	15.8816
-38.7195	421.703	15.95
-38.71394	422.253	16.0183
-38.7093	421.781	16.08667
-38.7027	421.923	16.155
-38.6958	423.928	16.2234
-38.6912	424.7941	16.2917
-38.6848	426.575	16.3601
-38.6788	429.9772	16.4285
-38.6747	427.763	16.4968
-38.6682	426.041	16.5652
-38.6629	422.177	16.6335
-38.6567	421.783	16.7019
-38.6513	420.149	16.7703
-38.6454	420.049	16.8386
-38.6406	421.857	16.907
-38.634	422.828	16.9753
-38.6276	423.92	17.0437
-38.6226	427.635	17.1121
-38.6164	426.751	17.18042
-38.6118	422.318	17.2488
-38.60516	422.685	17.3171
-38.6	423.2453	17.3855
-38.5942	420.211	17.4539
-38.5878	418.256	17.5222
-38.5818	419.604	17.5906
-38.5767	418.182	17.6589
-38.5712	423.4	17.7273
-38.5654	426.194	17.7957
-38.5591	424.646	17.864
-38.555	423.469	17.9324
-38.5483	422.086	18.0007
-38.5427	425.409	18.0691
-38.5364	418.895	18.1375
-38.5308	419.414	18.2058
-38.5262	420.376	18.27417
-38.5205	417.844	18.3425
-38.5146	419.784	18.4109
-38.5092	424.543	18.4792
-38.503	423.059	18.5476
-38.49638	421.808	18.616
-38.4919	424.259	18.6843
-38.4861	425.263	18.7527
-38.4807	420.554	18.821
-38.4752	419.599	18.8894
-38.468	418.701	18.9578
-38.46339	417.021	19.0261
-38.4566	420.684	19.0945
-38.4516	423.784	19.1628
-38.4461	420.718	19.2312
-38.4402	420.314	19.2996
-38.435	425.7341	19.36792
-38.4289	424.435	19.4363
-38.4234	421.292	19.5046
-38.417	421.735	19.573
-38.4111	420.0629	19.6414
-38.4068	418.031	19.7097
-38.4007	417.887	19.7781
-38.3939	420.141	19.8464
-38.3901	419.196	19.9148
-38.384	421.638	19.9832
-38.3819	421.352	20.0125

Data Header:			0.254_solid_uprint_typeiv_090_r0			Time:	26.1699	s	4/14/2019 1:14:13 AM
Data Acquisition:	Timed
Station Name:	ft40.cfg
Test File Name:	monotonic_0.2540_typeiv_solid_090_uprint.tst
Displacement	Force	Running Time
mm	N	s
-38.37944	416.343	20.0222
-38.3773	425.528	20.0515
-38.3752	415.48	20.0808
-38.3727	424.187	20.1101
-38.3707	418.295	20.1394
-38.3688	422.876	20.1687
-38.3658	418.8252	20.198
-38.3628	421.02	20.2273
-38.3604	420.59	20.2566
-38.3579	420.224	20.2859
-38.3561	420.328	20.3152
-38.3535	419.242	20.3445
-38.351	424.925	20.3738
-38.3493	418.842	20.4031
-38.346	421.318	20.4324
-38.3432	417.953	20.46167
-38.341	424.603	20.491
-38.339	414.922	20.5203
-38.3351	420.825	20.5496
-38.3335	418.422	20.5789
-38.3313	421.6785	20.6082
-38.3292	418.097	20.6375
-38.3273	417.335	20.6667
-38.3231	421.85	20.696
-38.3213	416.953	20.7253
-38.3187	421.649	20.7546
-38.3159	418.745	20.7839
-38.314	421.6452	20.8132
-38.3116	414.747	20.8425
-38.3088	422.134	20.8718
-38.308	417.544	20.9011
-38.3047	423.453	20.93042
-38.3021	417.66	20.9597
-38.3001	422.524	20.989
-38.2972	418.692	21.0183
-38.2951	418.06	21.0476
-38.2912	417.982	21.0769
-38.2902	421.186	21.1062
-38.2879	419.206	21.1355
-38.285	417.082	21.1648
-38.28241	420.603	21.1941
-38.2802	417.8	21.2234
-38.2776	422.282	21.2527
-38.2764	413.535	21.282
-38.2726	425.45	21.3113
-38.2706	417.889	21.3406
-38.2682	423.413	21.3699
-38.2647	413.078	21.39917
-38.263	424.064	21.4285
-38.261	414.952	21.4578
-38.2569	421.78	21.4871
-38.2552	415.602	21.5164
-38.2534	422.9	21.5457
-38.25021	415.8595	21.575
-38.2479	418.014	21.6042
-38.2466	417.584	21.6335
-38.2445	420.702	21.6628
-38.2415	420.279	21.6921
-38.239	415.722	21.7214
-38.2351	423.41	21.7507
-38.2338	414.608	21.78
-38.2314	421.733	21.8093
-38.2286	416.092	21.8386
-38.2269	424.506	21.86792
-38.2235	413.687	21.8972
-38.2219	422.172	21.9265
-38.219	416.061	21.9558
-38.2165	422.602	21.9851
-38.2144	415.06	22.0144
-38.2115	420.426	22.0437
-38.2089	418.511	22.073
-38.2065	417.901	22.1023
-38.2038	417.417	22.1316
-38.2023	418.098	22.1609
-38.1993	420.717	22.1902
-38.1973	416.038	22.2195
-38.194	420.2485	22.2488
-38.193	416.512	22.2781
-38.1898	420.317	22.3074
-38.1867	412.04	22.33667
-38.1848	419.557	22.366
-38.1813	417.398	22.3953
-38.1806	420.807	22.4246
-38.1769	414.797	22.4539
-38.1761	419.2337	22.4832
-38.1729	418.456	22.5125
-38.1698	416.7757	22.5417
-38.1673	417.773	22.571
-38.1658	418.838	22.6003
-38.16383	420.1582	22.6296
-38.1605	416.791	22.6589
-38.1578	418.437	22.6882
-38.1558	415.541	22.7175
-38.1532	420.446	22.7468
-38.1502	415.563	22.7761
-38.1489	421.254	22.80542
-38.1464	415.568	22.8347
-38.1438	418.866	22.864
-38.1407	414.692	22.8933
-38.1384	420.141	22.9226
-38.1353	418.613	22.9519
-38.1338	416.049	22.9812
-38.1309	417.125	23.0105
-38.1281	417.138	23.0398
-38.1255	416.897	23.0691
-38.1249	414.372	23.0984
-38.1213	420.733	23.1277
-38.1193	416.011	23.157
-38.1159	419.708	23.1863
-38.1132	410.979	23.2156
-38.1115	422.246	23.2449
-38.1098	412.371	23.27417
-38.1068	419.279	23.3035
-38.1037	412.191	23.3328
-38.1028	422.285	23.3621
-38.09948	412.749	23.3914
-38.0961	417.195	23.4207
-38.095	414.751	23.45
-38.0921	417.216	23.4792
-38.0888	416.259	23.5085
-38.08728	414.09	23.5378
-38.08559	420.594	23.5671
-38.0818	411.285	23.5964
-38.0799	418.226	23.6257
-38.0779	412.732	23.655
-38.0756	419.6377	23.6843
-38.0729	411.264	23.7136
-38.0709	419.545	23.74292
-38.0674	411.407	23.7722
-38.0654	419.886	23.8015
-38.0627	409.314	23.8308
-38.0604	418.46	23.8601
-38.0586	414.327	23.8894
-38.05423	417.194	23.9187
-38.0525	410.376	23.948
-38.0506	414.021	23.9773
-38.0482	413.427	24.0066
-38.0455	410.2702	24.0359
-38.0444	414.4957	24.0652
-38.0408	410.913	24.0945
-38.0384	413.897	24.1238
-38.0363	406.219	24.1531
-38.0336	411.136	24.1824
-38.03093	405.371	24.21167
-38.0258	-22.0425	24.241
-38.0253	-43.5454	24.2703
-38.0226	-38.3082	24.2996
-38.0205	-43.3908	24.3289
-38.0189	-40.8802	24.3582
-38.0162	-45.168	24.3875
-38.0134	-40.7361	24.4167
-38.0108	-40.4047	24.446
-38.0088	-42.3777	24.4753
-38.00589	-40.3279	24.5046
-38.00362	-42.3466	24.5339
-38.0015	-41.5541	24.5632
-37.9989	-45.7121	24.5925
-37.9954	-38.3025	24.6218
-37.9933	-43.9977	24.6511
-37.9927	-40.7949	24.68042
-37.989	-45.7101	24.7097
-37.9862	-40.2216	24.739
-37.9839	-45.1031	24.7683
-37.9815	-41.8509	24.7976
-37.9789	-41.2328	24.8269
-37.9776	-39.2021	24.8562
-37.97403	-42.8395	24.8855
-37.971	-45.9333	24.9148
-37.97	-40.0276	24.9441
-37.9671	-44.1649	24.9734
-37.96526	-40.3686	25.0027
-37.96236	-45.9013	25.032
-37.9595	-35.8829	25.0613
-37.9575	-46.8105	25.0906
-37.95422	-40.3953	25.1199
-37.95174	-45.1406	25.14917
-37.9505	-37.5345	25.1785
-37.9469	-45.80275	25.2078
-37.9445	-41.10931	25.2371
-37.9425	-42.9526	25.2664
-37.9401	-40.65654	25.2957
-37.9383	-43.8068	25.325
-37.9366	-42.008	25.3542
-37.9322	-39.3107	25.3835
-37.931	-45.2695	25.4128
-37.9279	-40.907	25.4421
-37.92625	-44.7685	25.4714
-37.9239	-38.2244	25.5007
-37.921	-47.8991	25.53
-37.9193	-39.1075	25.5593
-37.9155	-44.7316	25.5886
-37.9139	-38.30402	25.61792
-37.91074	-49.3211	25.6472
-37.909	-39.7833	25.6765
-37.9071	-45.6055	25.7058
-37.9047	-39.2776	25.7351
-37.9015	-45.3654	25.7644
-37.8993	-39.778	25.7937
-37.8961	-43.7674	25.823
-37.8936	-42.9086	25.8523
-37.8911	-44.8985	25.8816
-37.8892	-42.5318	25.9109
-37.8879	-39.9837	25.9402
-37.8838	-45.6871	25.9695
-37.8825	-40.9119	25.9988
-37.8785	-45.4661	26.0281
-37.87709	-41.1032	26.0574
-37.8742	-45.8464	26.08667
-37.8719	-38.9228	26.116
-37.8702	-44.4642	26.1453
-37.8682	-43.6397	26.1648