File: data/processed_data_files/tensile/0.254_hd_uprint_typei_090_r(2).dat
MTS793|BTW|ENU|1|2|.|/|:|1|0|0|A

Data Header:			0.254_hd_uprint_typei_090_r0			Time:	20.0261	s	4/15/2019 3:51:04 PM
Data Acquisition:	Timed
Station Name:	ft40.cfg
Test File Name:	monotonic_0.2540_typei_hd_090_uprint.tst
Displacement	Force	Running Time
mm	N	s
9.98113	-209.461	0.0310059
9.98127	-210.524	0.0993652
9.98648	-208.624	0.167725
9.99119	-205.373	0.236084
9.99895	-200.899	0.304443
10.0038	-198.54	0.372803
10.0083	-200.652	0.441162
10.015	-196.641	0.509521
10.0211	-195.109	0.577881
10.0259	-195.858	0.64624
10.0322	-199.953	0.7146
10.0368	-198.447	0.782959
10.04353	-199.261	0.851318
10.0489	-198.888	0.919678
10.0538	-194.015	0.988037
10.06	-188.025	1.0564
10.0659	-187.669	1.12476
10.0729	-188.008	1.19312
10.07764	-182.829	1.26147
10.0833	-181.2397	1.329834
10.0891	-188.417	1.39819
10.0932	-186.74	1.46655
10.1009	-186.023	1.53491
10.1063	-186.731	1.60327
10.11167	-184.303	1.67163
10.118	-178.946	1.73999
10.1236	-175.61	1.80835
10.1291	-175.958	1.876709
10.1342	-170.776	1.94507
10.1399	-166.248	2.01343
10.1461	-170.43	2.08179
10.151	-170.779	2.15015
10.15707	-171.572	2.21851
10.1631	-169.515	2.28687
10.1681	-168.6181	2.35522
10.1755	-165.557	2.423584
10.1802	-160.913	2.49194
10.1866	-159.238	2.5603
10.1906	-155.712	2.62866
10.1971	-149.336	2.69702
10.2022	-150.636	2.76538
10.209	-150.196	2.83374
10.21416	-152.827	2.9021
10.22	-153.039	2.970459
10.2254	-149.028	3.03882
10.2312	-147.398	3.10718
10.2364	-144.707	3.17554
10.2433	-141.434	3.2439
10.2496	-135.963	3.31226
10.2552	-129.031	3.38062
10.2599	-128.836	3.44897
10.265	-127.3849	3.517334
10.27	-126.594	3.58569
10.2771	-127.7011	3.65405
10.2821	-128.529	3.72241
10.2875	-123.7783	3.79077
10.2938	-119.175	3.85913
10.2996	-120.402	3.92749
10.305	-114.645	3.99585
10.311	-104.499	4.064209
10.3167	-102.826	4.13257
10.3218	-103.108	4.20093
10.3279	-98.221	4.26929
10.3331	-100.372	4.33765
10.3392	-101.278	4.40601
10.34553	-97.2396	4.47437
10.3509	-95.4659	4.54272
10.3566	-92.77	4.611084
10.3623	-88.2661	4.67944
10.3676	-79.7972	4.7478
10.3746	-73.63485	4.81616
10.379	-74.3485	4.88452
10.3854	-71.4767	4.95288
10.3915	-67.5155	5.02124
10.3966	-70.0637	5.0896
10.4025	-69.3863	5.157959
10.4084	-63.0165	5.22632
10.4144	-62.9609	5.29468
10.4191	-60.5504	5.36304
10.42437	-51.4504	5.4314
10.4305	-44.0746	5.49976
10.4364	-41.5058	5.56812
10.442	-38.64521	5.63647
10.4468	-35.43177	5.704834
10.454	-36.509	5.77319
10.4594	-35.152	5.84155
10.4654	-34.005	5.90991
10.4705	-33.0268	5.97827
10.4767	-30.1014	6.04663
10.4816	-23.1535	6.11499
10.4875	-15.7407	6.18335
10.4935	-10.80017	6.251709
10.4995	-7.65689	6.32007
10.504	-4.1338	6.38843
10.5106	-4.02292	6.45679
10.5155	-1.23886	6.52515
10.52127	0.449629	6.59351
10.5275	-1.40601	6.66187
10.5326	1.16142	6.73022
10.539	8.05046	6.798584
10.54431	16.9011	6.86694
10.5499	21.5469	6.9353
10.5558	26.68664	7.00366
10.56071	31.3004	7.07202
10.567	31.2449	7.14038
10.5731	33.4119	7.20874
10.5783	36.1626	7.2771
10.5841	35.2876	7.345459
10.5895	33.4496	7.41382
10.5961	40.2221	7.48218
10.6015	48.5111	7.55054
10.6065	52.6672	7.6189
10.6123	58.8719	7.68726
10.6191	65.4204	7.75562
10.6242	66.84742	7.82397
10.6296	68.0492	7.892334
10.6358	69.3657	7.96069
10.6413	71.9934	8.02905
10.6471	68.4851	8.09741
10.6516	73.4648	8.16577
10.6583	81.8089	8.23413
10.6638	85.7298	8.30249
10.6703	89.1223	8.37085
10.6763	95.7223	8.439209
10.6806	102.2008	8.50757
10.6883	104.153	8.57593
10.6924	104.744	8.64429
10.6981	107.9674	8.71265
10.7038	107.408	8.78101
10.7092	107.012	8.84937
10.715	110.787	8.91772
10.7211	117.397	8.986084
10.7271	122.017	9.05444
10.73238	130.462	9.1228
10.7388	135.587	9.19116
10.7441	139.026	9.25952
10.7498	142.577	9.32788
10.7552	140.57	9.39624
10.7615	140.747	9.4646
10.766	140.046	9.532959
10.7724	145.4122	9.60132
10.7774	149.604	9.66968
10.7834	154.759	9.73804
10.7891	161.302	9.8064
10.796	167.073	9.87476
10.8015	170.738	9.94312
10.80684	176.64	10.0115
10.8123	178.449	10.0798
10.8171	175.695	10.1482
10.8227	176.202	10.2166
10.8293	180.633	10.2849
10.8345	183.57	10.3533
10.84065	185.535	10.4216
10.8457	193.434	10.48999
10.8517	201.09	10.55835
10.8582	203.408	10.6267
10.8619	208.754	10.6951
10.8692	212.532	10.7634
10.87576	212.298	10.8318
10.881	210.7757	10.9001
10.8868	214.495	10.9685
10.8919	218.597	11.0369
10.8971	219.451	11.1052
10.9033	222.601	11.1736
10.9089	232.065	11.2419
10.9148	236.121	11.3103
10.9204	243.164	11.3787
10.92565	249.959	11.447
10.9313	249.512	11.5154
10.9376	247.668	11.58374
10.9436	247.032	11.6521
10.94881	252.44	11.7205
10.95474	253.066	11.7888
10.9598	255.597	11.8572
10.9654	263.296	11.9255
10.9717	270.248	11.9939
10.9773	275.711	12.0623
10.98331	282.259	12.1306
10.988	286.401	12.199
10.9936	282.183	12.2673
11.0005	282.712	12.3357
11.0066	286.93	12.4041
11.0117	287.412	12.4724
11.018	289.316	12.5408
11.02248	294.653	12.6091
11.02769	299.41	12.67749
11.034	307.57	12.74585
11.0393	314.408	12.8142
11.0457	318.875	12.8826
11.05247	318.422	12.9509
11.0573	316.465	13.0193
11.0624	321.935	13.0876
11.0682	320.642	13.156
11.0743	323.238	13.2244
11.0798	328.099	13.2927
11.08567	330.694	13.3611
11.0917	337.563	13.4294
11.0965	345.802	13.4978
11.1023	349.869	13.5662
11.1085	351.79	13.6345
11.1144	353.576	13.7029
11.11922	358.192	13.77124
11.1248	356.365	13.8396
11.1316	353.889	13.908
11.1368	359.008	13.9763
11.1425	364.36	14.0447
11.1487	367.269	14.113
11.15357	373.234	14.1814
11.16	381.76	14.2498
11.1655	383.502	14.3181
11.1708	383.391	14.3865
11.1768	389.002	14.4548
11.1811	391.634	14.5232
11.18792	388.704	14.5916
11.1934	391.631	14.6599
11.1992	394.436	14.7283
11.2057	397.273	14.7966
11.211	404.338	14.86499
11.2169	412.7352	14.93335
11.2226	416.789	15.0017
11.2272	417.416	15.0701
11.2333	422.7168	15.1384
11.2392	426.952	15.2068
11.2459	423.104	15.2751
11.2504	424.06	15.3435
11.2563	427.9339	15.4119
11.2619	431.522	15.4802
11.26809	437.016	15.5486
11.273	440.815	15.6169
11.2795	447.986	15.6853
11.28409	450.125	15.7537
11.29	454.157	15.822
11.2961	459.322	15.8904
11.3016	456.662	15.95874
11.3068	457.844	16.0271
11.3122	458.535	16.0955
11.3194	458.289	16.1638
11.3249	465.93	16.2322
11.3312	469.65	16.3005
11.33606	475.732	16.3689
11.3422	480.4278	16.4373
11.3476	485.914	16.5056
11.3532	490.629	16.574
11.3593	489.622	16.6423
11.3646	491.246	16.7107
11.3702	492.905	16.7791
11.3763	490.658	16.8474
11.381	495.772	16.9158
11.3871	501.118	16.9841
11.3934	506.046	17.05249
11.3989	508.956	17.12085
11.4031	514.539	17.1892
11.4101	521.654	17.2576
11.4157	522.015	17.3259
11.4217	522.78	17.3943
11.4273	524.5719	17.4626
11.433	524.159	17.531
11.4383	525.369	17.5994
11.4438	529.472	17.6677
11.4505	534.632	17.7361
11.4553	537.035	17.8044
11.4616	543.527	17.8728
11.4668	552.627	17.9412
11.4734	553.309	18.0095
11.4777	552.525	18.0779
11.48403	554.1756	18.14624
11.4906	554.3504	18.2146
11.496	555.429	18.283
11.5011	558.024	18.3513
11.5075	563.907	18.4197
11.5122	565.547	18.488
11.518	570.504	18.5564
11.5247	578.0047	18.6248
11.5301	585.185	18.6931
11.5362	585.49	18.7615
11.5411	585.972	18.8298
11.5466	586.675	18.8982
11.55363	586.607	18.9666
11.5585	586.448	19.0349
11.5646	589.713	19.1033
11.5696	592.624	19.1716
11.5749	595.948	19.23999
11.5815	604.461	19.30835
11.5872	610.754	19.3767
11.5925	613.7926	19.4451
11.5988	615.465	19.5134
11.6035	615.741	19.5818
11.6086	614.244	19.6501
11.615	617.24	19.7185
11.6214	618.2666	19.7869
11.6276	617.737	19.8552
11.6325	623.286	19.9236
11.638	630.709	19.9919
11.6407	635.752	20.02124

Data Header:			0.254_hd_uprint_typei_090_r0			Time:	39.4031	s	4/15/2019 3:51:24 PM
Data Acquisition:	Timed
Station Name:	ft40.cfg
Test File Name:	monotonic_0.2540_typei_hd_090_uprint.tst
Displacement	Force	Running Time
mm	N	s
11.64109	627.156	20.031
11.6469	631.215	20.0994
11.6526	633.83	20.1677
11.6585	639.227	20.2361
11.6634	645.234	20.3044
11.6706	648.2359	20.3728
11.6752	650.749	20.4412
11.6813	657.741	20.5095
11.6867	660.896	20.5779
11.6926	657.35	20.64624
11.6979	658.015	20.7146
11.7031	659.456	20.783
11.7091	660.3667	20.8513
11.7147	664.755	20.9197
11.7203	670.697	20.988
11.7266	673.225	21.0564
11.7319	676.421	21.1248
11.7383	684.765	21.1931
11.7437	686.905	21.2615
11.7495	686.765	21.3298
11.7547	687.132	21.3982
11.7603	685.498	21.4666
11.7658	686.054	21.5349
11.7728	690.362	21.6033
11.7777	695.38	21.6716
11.7838	696.522	21.73999
11.7893	701.54	21.80835
11.7944	711.575	21.8767
11.8003	714.379	21.9451
11.8068	714.085	22.0134
11.8122	714.658	22.0818
11.8178	715.4093	22.1501
11.8229	711.81	22.2185
11.829	715.524	22.2869
11.8339	718.719	22.3552
11.8408	721.204	22.4236
11.8472	724.1095	22.4919
11.8521	731.946	22.5603
11.8575	740.648	22.6287
11.8633	738.608	22.697
11.8698	740.154	22.7654
11.87561	743.679	22.83374
11.8806	740.658	22.9021
11.8866	741.796	22.9705
11.8908	743.1734	23.0388
11.8974	746.4519	23.1072
11.9022	748.18	23.1755
11.9081	752.534	23.2439
11.91414	762.78	23.3123
11.9203	765.061	23.3806
11.9249	763.925	23.449
11.93047	767.058	23.5173
11.9374	765.945	23.5857
11.9438	766.279	23.6541
11.9486	765.376	23.7224
11.9548	767.017	23.7908
11.9603	769.154	23.8591
11.96534	774.861	23.92749
11.9714	782.396	23.99585
11.9775	784.722	24.0642
11.9837	787.968	24.1326
11.98875	789.349	24.2009
11.995	788.153	24.2693
12.0005	789.888	24.3376
12.0055	788.279	24.406
12.012	788.557	24.4744
12.0173	789.125	24.5427
12.0223	792.575	24.6111
12.0278	799.9212	24.6794
12.0348	803.933	24.7478
12.0392	807.896	24.8162
12.0444	810.258	24.8845
12.0518	810.789	24.9529
12.0573	808.921	25.02124
12.0622	811.832	25.0896
12.0683	808.659	25.158
12.0744	805.1463	25.2263
12.0803	809.56	25.2947
12.0857	818.186	25.363
12.091	820.686	25.4314
12.0966	824.256	25.4998
12.1024	828.029	25.5681
12.1095	830.804	25.6365
12.1146	829.288	25.7048
12.1199	829.239	25.7732
12.125	828.264	25.8416
12.1317	824.431	25.9099
12.1358	823.541	25.9783
12.1428	832.15	26.0466
12.1483	836.162	26.11499
12.1528	838.36	26.18335
12.1592	843.886	26.2517
12.16414	847.506	26.3201
12.1711	846.683	26.3884
12.1771	845.596	26.4568
12.1827	845.217	26.5251
12.1881	841.279	26.5935
12.1935	837.894	26.6619
12.1992	843.073	26.7302
12.2054	847.8	26.7986
12.2104	849.436	26.8669
12.217	852.263	26.9353
12.22172	858.9231	27.0037
12.2266	858.291	27.072
12.233	860.434	27.1404
12.2396	856.133	27.20874
12.2447	853.371	27.2771
12.2503	851.399	27.3455
12.2565	850.721	27.4138
12.2627	854.076	27.4822
12.2675	856.336	27.5505
12.2736	859.838	27.6189
12.2796	864.918	27.6873
12.2845	863.621	27.7556
12.2904	867.486	27.824
12.2956	864.978	27.8923
12.302	861.22	27.9607
12.307	855.291	28.0291
12.3138	857.891	28.0974
12.3178	859.3728	28.1658
12.3246	858.3468	28.2341
12.3297	863.148	28.30249
12.3357	868.532	28.37085
12.3419	866.667	28.4392
12.3482	870.869	28.5076
12.3526	871.636	28.5759
12.3591	867.621	28.6443
12.3642	860.421	28.7126
12.3704	860.469	28.781
12.3759	861.143	28.8494
12.3819	858.932	28.9177
12.3873	861.106	28.9861
12.3935	866.601	29.0544
12.3991	867.446	29.1228
12.4047	869.912	29.1912
12.4101	870.915	29.2595
12.4156	870.239	29.3279
12.4214	859.869	29.39624
12.4274	859.172	29.4646
12.4337	861.062	29.533
12.4387	858.297	29.6013
12.4448	855.678	29.6697
12.4492	861.486	29.738
12.456	864.091	29.8064
12.4607	865.036	29.8748
12.4666	868.42	29.9431
12.4723	867.823	30.0115
12.4794	862.4577	30.0798
12.4842	858.843	30.1482
12.4906	860.106	30.2166
12.4954	857.558	30.2849
12.5005	854.734	30.3533
12.5064	856.484	30.4216
12.5136	857.41	30.48999
12.5186	860.653	30.55835
12.5255	864.203	30.6267
12.53	865.336	30.6951
12.5358	861.223	30.7634
12.5424	856.553	30.8318
12.5466	856.761	30.9001
12.55235	854.0072	30.9685
12.5577	848.346	31.0369
12.56365	850.868	31.1052
12.5698	852.1701	31.1736
12.57552	854.808	31.2419
12.5808	859.206	31.3103
12.5869	861.022	31.3787
12.5915	856.529	31.447
12.5974	854.554	31.5154
12.60338	852.974	31.58374
12.6096	849.775	31.6521
12.6155	845.98	31.7205
12.6206	846.621	31.7888
12.62723	846.184	31.8572
12.63268	847.209	31.9255
12.6387	851.4964	31.9939
12.6436	854.842	32.0623
12.64861	853.326	32.1306
12.6549	849.272	32.199
12.6607	852.6015	32.2673
12.6675	849.771	32.3357
12.6718	842.669	32.4041
12.6776	841.857	32.4724
12.6831	841.708	32.5408
12.69	842.053	32.6091
12.6956	844.783	32.67749
12.7003	850.5553	32.74585
12.707	849.287	32.8142
12.7131	846.59	32.8826
12.7176	847.563	32.9509
12.7239	848.1087	33.0193
12.7295	842.807	33.0876
12.7356	838.181	33.156
12.7398	840.528	33.2244
12.7465	837.846	33.2927
12.7518	840.4223	33.3611
12.7583	842.595	33.4294
12.7629	845.238	33.4978
12.7684	843.494	33.5662
12.7746	845.465	33.6345
12.77985	845.678	33.7029
12.7856	843.613	33.77124
12.79242	837.597	33.8396
12.797	836.3551	33.908
12.8023	834.615	33.9763
12.8087	836.5	34.0447
12.8147	839.286	34.113
12.819	840.241	34.1814
12.8273	840.717	34.2498
12.8313	842.3678	34.3181
12.8375	844.976	34.3865
12.8422	841.056	34.4548
12.8485	839.163	34.5232
12.854	835.087	34.5916
12.8611	832.247	34.6599
12.8663	833.21	34.7283
12.8722	835.5874	34.7966
12.8772	834.534	34.86499
12.8828	837.645	34.93335
12.8881	840.202	35.0017
12.8942	843.445	35.0701
12.9	839.8186	35.1384
12.906	837.9397	35.2068
12.91179	838.558	35.2751
12.9182	832.353	35.3435
12.9226	831.023	35.4119
12.9286	831.717	35.4802
12.934	832.316	35.5486
12.9403	831.278	35.6169
12.9465	835.83	35.6853
12.9522	841.213	35.7537
12.9571	840.747	35.822
12.9616	837.269	35.8904
12.9691	835.297	35.95874
12.9737	832.209	36.0271
12.97902	826.511	36.0955
12.985	828.19	36.1638
12.9911	830.7453	36.2322
12.9979	829.462	36.3005
13.0028	829.889	36.3689
13.0089	836.379	36.4373
13.014	837.425	36.5056
13.0191	832.601	36.574
13.0251	834.53	36.6423
13.0303	830.035	36.7107
13.0361	823.65	36.7791
13.0423	821.299	36.8474
13.0486	820.237	36.9158
13.054	814.788	36.9841
13.064	-46.0956	37.05249
13.0671	-44.3849	37.12085
13.0713	-39.9333	37.1892
13.0773	-40.6338	37.2576
13.0829	-42.4939	37.3259
13.0882	-44.5717	37.3943
13.095	-46.21838	37.4626
13.0995	-48.0822	37.531
13.1049	-50.4557	37.5994
13.112	-51.0407	37.6677
13.116	-50.4038	37.7361
13.1224	-44.8582	37.8044
13.129	-41.3937	37.8728
13.1336	-41.6993	37.9412
13.1398	-39.5532	38.0095
13.1458	-41.8926	38.0779
13.1509	-46.304	38.14624
13.1564	-46.1777	38.2146
13.1628	-46.9733	38.283
13.169	-51.9887	38.3513
13.1743	-52.8273	38.4197
13.1807	-48.8346	38.488
13.1851	-45.0369	38.5564
13.191	-42.5834	38.6248
13.1962	-40.9953	38.6931
13.2014	-39.4602	38.7615
13.2077	-43.624	38.8298
13.2131	-44.12159	38.8982
13.21896	-47.5478	38.9666
13.2254	-49.7529	39.0349
13.2308	-55.4896	39.1033
13.2361	-51.2105	39.1716
13.2423	-45.2351	39.23999
13.2477	-46.098	39.30835
13.254	-41.4626	39.3767
13.2552	-44.4696	39.39624