File: data/processed_data_files/tensile/0.254_solid_dimension_typei_4545_r(5).dat
MTS793|BTW|ENU|1|2|.|/|:|1|0|0|A

Data Header:			0.254_solid_dimension_typei_4545_r0			Time:	20.0168	s	4/14/2019 4:55:12 AM
Data Acquisition:	Timed
Station Name:	ft40.cfg
Test File Name:	monotonic_0.2540_typei_solid_4545_dimension.tst
Displacement	Force	Running Time
mm	N	s
9.95812	-112.25	0.0222168
9.9613	-113.373	0.0905762
9.96541	-113.509	0.158936
9.97122	-112.283	0.227295
9.97699	-115.676	0.2956543
9.98247	-115.481	0.364014
9.98852	-113.048	0.432373
9.99424	-110.893	0.500732
9.99938	-106.395	0.5690918
10.0063	-97.9833	0.637451
10.0112	-87.6094	0.705811
10.01663	-81.1845	0.77417
10.0226	-78.7382	0.8425293
10.029	-77.3404	0.910889
10.0352	-78.0315	0.979248
10.04061	-77.9203	1.04761
10.046	-78.42	1.11597
10.0513	-78.0829	1.18433
10.0568	-75.2318	1.25269
10.0613	-65.969	1.32104
10.0683	-55.6165	1.3894
10.0737	-49.0164	1.45776
10.0791	-41.0497	1.526123
10.0844	-39.56963	1.59448
10.0913	-39.3251	1.66284
10.0967	-38.5477	1.7312
10.1026	-40.0332	1.79956
10.1081	-40.7238	1.86792
10.11355	-38.56031	1.93628
10.1187	-30.0701	2.00464
10.1244	-22.7196	2.072998
10.131	-14.1083	2.14136
10.1374	-7.03329	2.20972
10.14193	-1.92425	2.27808
10.1473	0.637895	2.34644
10.1546	3.4188	2.41479
10.16	1.62375	2.48315
10.1652	-2.345284	2.55151
10.1704	-2.11272	2.619873
10.1767	7.51499	2.68823
10.18225	11.34	2.75659
10.1875	18.0563	2.82495
10.1934	30.8408	2.89331
10.1996	34.8629	2.96167
10.2049	40.8394	3.03003
10.211	44.2267	3.09839
10.2167	43.1943	3.166748
10.22214	38.456	3.23511
10.22678	37.5289	3.30347
10.233	44.2601	3.37183
10.2394	46.3179	3.44019
10.24432	54.6015	3.50854
10.2502	64.3063	3.5769
10.25615	71.6044	3.64526
10.2612	79.2799	3.713623
10.2675	85.1818	3.78198
10.2723	85.9355	3.85034
10.278	80.7131	3.9187
10.2854	80.1027	3.98706
10.291	83.3685	4.05542
10.2963	83.9848	4.12378
10.3014	90.0114	4.19214
10.3078	99.471	4.260498
10.31317	109.045	4.32886
10.3189	117.642	4.39722
10.3243	124.915	4.46558
10.3293	126.218	4.53394
10.3351	121.966	4.60229
10.3415	123.579	4.67065
10.3468	125.95	4.73901
10.35289	123.616	4.807373
10.3579	127.623	4.87573
10.3644	134.566	4.94409
10.3697	144.517	5.01245
10.375	151.844	5.08081
10.3812	162.61	5.14917
10.3874	166.027	5.21753
10.3918	164.839	5.28589
10.3989	168.423	5.354248
10.4034	167.433	5.42261
10.4094	163.614	5.49097
10.4143	164.5748	5.55933
10.4206	172.069	5.62769
10.4281	180.646	5.69604
10.4319	188.896	5.7644
10.4382	198.885	5.83276
10.4436	203.741	5.901123
10.4492	205.6918	5.96948
10.4556	209.526	6.03784
10.4619	209.017	6.1062
10.467	205.064	6.17456
10.4727	205.639	6.24292
10.4782	207.978	6.31128
10.4836	215.995	6.37964
10.4899	225.216	6.447998
10.4948	235.294	6.51636
10.4998	241.314	6.58472
10.5061	246.801	6.65308
10.5118	251.628	6.72144
10.518	251.992	6.78979
10.52381	250.152	6.85815
10.5292	246.723	6.92651
10.5355	247.32	6.994873
10.541	254.362	7.06323
10.5461	260.836	7.13159
10.5531	268.202	7.19995
10.5582	275.582	7.26831
10.5631	284.045	7.33667
10.5691	290.525	7.40503
10.5749	291.702	7.47339
10.5806	292.83	7.541748
10.5872	291.047	7.61011
10.5921	288.018	7.67847
10.5978	290.951	7.74683
10.6032	297.487	7.81519
10.6087	299.185	7.88354
10.61407	307.381	7.9519
10.62016	317.482	8.02026
10.62539	327.361	8.088623
10.6318	330.049	8.15698
10.6366	334.463	8.22534
10.643	334.115	8.2937
10.6483	329.416	8.36206
10.6545	331.43	8.43042
10.6599	333.253	8.49878
10.6661	335.5426	8.56714
10.6719	340.277	8.635498
10.67663	352.259	8.70386
10.68311	363.648	8.77222
10.6888	367.836	8.84058
10.6943	374.367	8.90894
10.7	377.136	8.97729
10.7052	372.116	9.04565
10.712	372.497	9.11401
10.7178	372.411	9.182373
10.7226	372.008	9.25073
10.72942	375.795	9.31909
10.7345	385.7171	9.38745
10.7392	396.67	9.45581
10.7448	403.956	9.52417
10.7513	412.319	9.59253
10.7569	417.393	9.66089
10.7633	414.945	9.729248
10.7681	415.57	9.79761
10.77312	413.154	9.86597
10.7795	410.679	9.93433
10.7844	411.517	10.0027
10.791	420.828	10.071
10.7969	430.349	10.1394
10.8023	437.18	10.2078
10.80746	447.867	10.2761
10.8129	455.0434	10.3445
10.8196	456.575	10.4128
10.8263	455.598	10.4812
10.8313	454.716	10.5496
10.8366	450.514	10.61792
10.8418	447.746	10.6863
10.8471	454.391	10.7546
10.8543	461.652	10.823
10.8597	470.242	10.8914
10.8661	480.01	10.9597
10.8706	489.214	11.0281
10.8759	495.784	11.0964
10.8824	495.755	11.1648
10.88778	496.689	11.2332
10.8931	490.2674	11.3015
10.89872	487.691	11.3699
10.9051	491.308	11.4382
10.9115	494.931	11.5066
10.9164	501.522	11.575
10.9222	512.64	11.6433
10.9275	522.158	11.71167
10.93311	531.987	11.78
10.9392	534.091	11.8484
10.945	534.955	11.9167
10.9516	529.967	11.9851
10.956	528.281	12.0535
10.9614	526.839	12.1218
10.9675	529.04	12.1902
10.973	535.557	12.2585
10.9791	543.918	12.3269
10.9835	552.176	12.3953
10.9907	564.609	12.4636
10.9966	571.951	12.532
11.0028	571.8927	12.6003
11.0076	570.33	12.6687
11.0134	567.112	12.7371
11.0189	564.99	12.80542
11.0244	565.133	12.8738
11.0306	567.755	12.9421
11.0364	575.092	13.0105
11.0412	583.416	13.0789
11.0469	596.796	13.1472
11.0527	605.26	13.2156
11.0583	608.6687	13.2839
11.0647	606.823	13.3523
11.0706	605.0733	13.4207
11.07562	603.609	13.489
11.0813	598.576	13.5574
11.0867	601.997	13.6257
11.0916	606.714	13.6941
11.0989	612.1673	13.7625
11.1042	625.804	13.8308
11.1098	636.476	13.89917
11.1163	641.352	13.9675
11.121	643.3913	14.0359
11.1267	646.459	14.1042
11.1332	642.891	14.1726
11.1376	637.505	14.241
11.145	636.783	14.3093
11.1498	638.835	14.3777
11.1559	642.404	14.446
11.1621	655.906	14.5144
11.1666	666.655	14.5828
11.1729	671.384	14.6511
11.1788	674.924	14.7195
11.1839	682.936	14.7878
11.1899	679.961	14.8562
11.19452	674.0802	14.9246
11.20098	673.561	14.99292
11.20713	672.0304	15.0613
11.2123	673.804	15.1296
11.2181	683.217	15.198
11.2243	694.94	15.2664
11.2304	700.69	15.3347
11.2349	709.125	15.4031
11.2409	717.49	15.4714
11.2466	715.124	15.5398
11.253	710.137	15.6082
11.2583	708.804	15.6765
11.2636	707.1369	15.7449
11.2697	706.606	15.8132
11.2744	712.202	15.8816
11.2804	721.006	15.95
11.28661	727.402	16.0183
11.2927	735.988	16.08667
11.2988	747.197	16.155
11.3037	748.938	16.2234
11.30892	746.663	16.2917
11.3159	745.016	16.3601
11.3196	741.613	16.4285
11.3257	740.221	16.4968
11.3321	741.801	16.5652
11.3373	747.989	16.6335
11.3436	755.281	16.7019
11.3493	764.839	16.7703
11.355	776.29	16.8386
11.3595	780.341	16.907
11.3662	782.812	16.9753
11.3725	779.896	17.0437
11.3778	776.11	17.1121
11.38366	773.859	17.18042
11.3883	773.743	17.2488
11.3945	776.731	17.3171
11.3998	780.094	17.3855
11.4057	791.009	17.4539
11.4121	801.626	17.5222
11.4171	807.952	17.5906
11.423	811.739	17.6589
11.4278	813.461	17.7273
11.4342	809.698	17.7957
11.4398	808.382	17.864
11.4453	805.683	17.9324
11.4524	803.648	18.0007
11.457	807.6203	18.0691
11.4619	816.811	18.1375
11.4685	825.625	18.2058
11.47428	834.38	18.27417
11.4801	841.985	18.3425
11.4856	842.591	18.4109
11.492	840.878	18.4792
11.4977	839.801	18.5476
11.5024	837.185	18.616
11.50931	831.082	18.6843
11.51499	834.163	18.7527
11.52023	842.5083	18.821
11.525	849.604	18.8894
11.5313	856.687	18.9578
11.53729	865.271	19.0261
11.5424	869.561	19.0945
11.5491	872.054	19.1628
11.55475	871.921	19.2312
11.5596	869.617	19.2996
11.5656	861.98	19.36792
11.5712	860.95	19.4363
11.5767	867.199	19.5046
11.5823	872.682	19.573
11.5882	880.858	19.6414
11.5939	890.014	19.7097
11.5995	894.771	19.7781
11.6058	899.439	19.8464
11.6108	901.916	19.9148
11.6167	897.62	19.9832
11.6178	891.4386	20.0125

Data Header:			0.254_solid_dimension_typei_4545_r0			Time:	40.0168	s	4/14/2019 4:55:32 AM
Data Acquisition:	Timed
Station Name:	ft40.cfg
Test File Name:	monotonic_0.2540_typei_solid_4545_dimension.tst
Displacement	Force	Running Time
mm	N	s
11.62064	902.997	20.0222
11.6258	909.784	20.0906
11.6307	910.03	20.1589
11.6377	911.381	20.2273
11.6429	906.546	20.2957
11.6482	906.6391	20.364
11.6542	901.971	20.4324
11.6599	901.267	20.5007
11.6654	904.668	20.5691
11.6726	913.995	20.6375
11.67733	924.012	20.7058
11.6816	928.502	20.77417
11.6884	935.76	20.8425
11.694	937.579	20.9109
11.6992	934.356	20.9792
11.7069	932.2132	21.0476
11.7108	928.787	21.116
11.7161	924.542	21.1843
11.7224	927.087	21.2527
11.7276	934.4931	21.321
11.7338	942.44	21.3894
11.7398	948.841	21.4578
11.7449	956.832	21.5261
11.7505	959.469	21.5945
11.7569	958.661	21.6628
11.7621	957.906	21.7312
11.7676	953.96	21.7996
11.7741	949.4256	21.86792
11.7788	948.025	21.9363
11.78576	953.998	22.0046
11.79	958.689	22.073
11.7967	965.764	22.1414
11.8021	977.317	22.2097
11.8086	979.807	22.2781
11.8141	981.794	22.3464
11.8195	981.834	22.4148
11.825	979.8548	22.4832
11.8298	968.641	22.5515
11.8367	968.087	22.6199
11.8427	973.48	22.6882
11.8465	975.147	22.7566
11.853	983.211	22.825
11.8582	991.706	22.8933
11.8641	996.526	22.96167
11.8702	1001.627	23.03
11.8762	1003.41	23.0984
11.8816	1000.7	23.1667
11.8869	992.208	23.2351
11.8929	990.223	23.3035
11.89848	991.828	23.3718
11.9052	990.975	23.4402
11.9103	996.534	23.5085
11.9161	1004.89	23.5769
11.922	1012.02	23.6453
11.9276	1017.77	23.7136
11.9333	1022.86	23.782
11.9386	1021.16	23.8503
11.94424	1012.62	23.9187
11.9504	1010.84	23.9871
11.9562	1010.11	24.05542
11.9616	1007.05	24.1238
11.9671	1011.08	24.1921
11.97353	1016.69	24.2605
11.9782	1024.52	24.3289
11.985	1029.86	24.3972
11.9906	1036.7	24.4656
11.9955	1036.724	24.5339
12.0025	1030.76	24.6023
12.0074	1031.32	24.6707
12.0132	1026.33	24.739
12.0184	1023.28	24.8074
12.0242	1023.01	24.8757
12.0298	1028.78	24.9441
12.0348	1033.38	25.0125
12.0411	1041.92	25.0808
12.0464	1048.1	25.14917
12.053	1050.07	25.2175
12.058	1046.94	25.2859
12.065	1047.32	25.3542
12.0696	1042.09	25.4226
12.0751	1036.475	25.491
12.082	1037.021	25.5593
12.0869	1037.67	25.6277
12.0923	1042.74	25.696
12.0989	1051.38	25.7644
12.1048	1057.19	25.8328
12.1094	1059.9	25.9011
12.1157	1060.44	25.9695
12.1208	1060.51	26.0378
12.126	1057.24	26.1062
12.1328	1049.825	26.1746
12.1388	1046.95	26.24292
12.1437	1046.34	26.3113
12.1496	1050.4	26.3796
12.1548	1056.33	26.448
12.1608	1063.4	26.5164
12.1661	1066.79	26.5847
12.1724	1069.5	26.6531
12.1772	1072.89	26.7214
12.1837	1068.49	26.7898
12.1895	1062.94	26.8582
12.1953	1058.884	26.9265
12.2016	1052.33	26.9949
12.2064	1056.45	27.0632
12.2118	1061.1	27.1316
12.218	1064.28	27.2
12.2224	1068.5	27.2683
12.2293	1076.4	27.33667
12.2346	1080.9	27.405
12.2403	1076.88	27.4734
12.2463	1073.37	27.5417
12.2515	1067.66	27.6101
12.2586	1060.85	27.6785
12.2637	1060.9	27.7468
12.2693	1064.85	27.8152
12.275	1068.42	27.8835
12.28	1070.88	27.9519
12.2859	1080.85	28.0203
12.2929	1083.73	28.0886
12.29757	1081.06	28.157
12.304	1080.99	28.2253
12.3091	1077.02	28.2937
12.3148	1070.82	28.3621
12.3199	1069.21	28.43042
12.326	1069.73	28.4988
12.3328	1067.02	28.5671
12.3368	1071	28.6355
12.343	1081.24	28.7039
12.34819	1086.12	28.7722
12.3539	1086.16	28.8406
12.3604	1086.93	28.9089
12.3667	1083.98	28.9773
12.3713	1078.21	29.0457
12.3764	1075.4	29.114
12.383	1074.27	29.1824
12.3878	1069.69	29.2507
12.3936	1071.02	29.3191
12.3992	1079.7	29.3875
12.4051	1085.11	29.4558
12.4115	1087.67	29.52417
12.4179	1092.21	29.5925
12.4231	1090.43	29.6609
12.428	1085.79	29.7292
12.4331	1079.83	29.7976
12.4398	1076.58	29.866
12.4455	1071.85	29.9343
12.4506	1071.181	30.0027
12.4583	1078.44	30.071
12.4623	1082.248	30.1394
12.4688	1087	30.2078
12.4729	1092.89	30.2761
12.4809	1092.809	30.3445
12.4853	1091.35	30.4128
12.4912	1084.97	30.4812
12.4961	1080.14	30.5496
12.5026	1072.719	30.61792
12.5083	1071.049	30.6863
12.5138	1076.39	30.7546
12.5204	1080.28	30.823
12.5253	1084.63	30.8914
12.5304	1090.66	30.9597
12.5366	1093.29	31.0281
12.5412	1092.91	31.0964
12.5473	1090.58	31.1648
12.5535	1086.34	31.2332
12.5591	1077.42	31.3015
12.565	1074.48	31.3699
12.5716	1077.07	31.4382
12.5767	1078.64	31.5066
12.5826	1083.53	31.575
12.5877	1089.47	31.6433
12.5932	1092.19	31.71167
12.5992	1097.39	31.78
12.6047	1093.46	31.8484
12.6104	1088.25	31.9167
12.6168	1080.8	31.9851
12.62262	1079.18	32.0535
12.6281	1076.09	32.1218
12.633	1075.45	32.1902
12.63922	1081.67	32.2585
12.6447	1085.2	32.3269
12.6498	1091.03	32.3953
12.6565	1097.07	32.4636
12.661	1095.39	32.532
12.6679	1091.82	32.6003
12.6745	1086.49	32.6687
12.67901	1082.88	32.7371
12.6837	1076.09	32.80542
12.6894	1074.99	32.8738
12.6962	1077.94	32.9421
12.7016	1081.975	33.0105
12.70714	1088.01	33.0789
12.7133	1094.77	33.1472
12.7184	1096.11	33.2156
12.7241	1092.39	33.2839
12.7305	1090.11	33.3523
12.7363	1087.94	33.4207
12.7415	1078.83	33.489
12.7477	1074.833	33.5574
12.753	1076.46	33.6257
12.7585	1077.23	33.6941
12.76386	1085.02	33.7625
12.7699	1093.06	33.8308
12.7753	1094.56	33.89917
12.7827	1093.31	33.9675
12.788	1092.43	34.0359
12.7944	1091.77	34.1042
12.7985	1083.37	34.1726
12.8042	1078.67	34.241
12.8096	1076.86	34.3093
12.8149	1076.28	34.3777
12.8215	1080.59	34.446
12.8265	1089.42	34.5144
12.8322	1091.61	34.5828
12.8383	1091.32	34.6511
12.8441	1094.97	34.7195
12.8504	1094.3	34.7878
12.8559	1086.098	34.8562
12.8612	1080.28	34.9246
12.866	1078.61	34.99292
12.8731	1074.86	35.0613
12.8781	1077.57	35.1296
12.8839	1083.53	35.198
12.88908	1087.39	35.2664
12.8954	1088.99	35.3347
12.9018	1095.11	35.4031
12.9072	1096.38	35.4714
12.9118	1089.49	35.5398
12.9184	1085.18	35.6082
12.9237	1081.31	35.6765
12.9288	1075.35	35.7449
12.9357	1077.08	35.8132
12.941	1081.56	35.8816
12.9469	1083.2	35.95
12.9521	1087.4	36.0183
12.9573	1095.49	36.08667
12.9633	1097.42	36.155
12.9703	1093.16	36.2234
12.9755	1089.161	36.2917
12.9815	1084.8	36.3601
12.9851	1078.23	36.4285
12.9928	1076.13	36.4968
12.9976	1077.94	36.5652
13.0033	1077.93	36.6335
13.00806	1082.08	36.7019
13.015	1091.193	36.7703
13.0193	1093.12	36.8386
13.0264	1093.08	36.907
13.0316	1089.11	36.9753
13.0379	1086.4	37.0437
13.0437	1081.89	37.1121
13.049	1077.42	37.18042
13.0547	1077.04	37.2488
13.06095	1075.746	37.3171
13.0649	1079.46	37.3855
13.0718	1088.31	37.4539
13.0778	1091.36	37.5222
13.0834	1093.28	37.5906
13.0882	1092.71	37.6589
13.0949	1088.14	37.7273
13.10061	1083.48	37.7957
13.1065	1080.72	37.864
13.1122	1075.79	37.9324
13.1176	1071.54	38.0007
13.1226	1077.14	38.0691
13.1288	1083.397	38.1375
13.1347	1088.59	38.2058
13.1408	1089.75	38.27417
13.1476	1092.16	38.3425
13.1512	1090.64	38.4109
13.1566	1087.59	38.4792
13.1635	1082.817	38.5476
13.1691	1075.52	38.616
13.1751	1071.96	38.6843
13.1803	1075.04	38.7527
13.1857	1078.46	38.821
13.1918	1083.91	38.8894
13.1966	1089.03	38.9578
13.2024	1091.13	39.0261
13.20824	1091.77	39.0945
13.2136	1090.03	39.1628
13.2205	1085.86	39.2312
13.2256	1077.6	39.2996
13.23027	1072.615	39.36792
13.2372	1074.88	39.4363
13.2421	1074.55	39.5046
13.2491	1077.54	39.573
13.2544	1085.4	39.6414
13.2603	1087.84	39.7097
13.2656	1091.17	39.7781
13.2725	1092.19	39.8464
13.2766	1088.54	39.9148
13.283	1079.08	39.9832
13.2847	1080.443	40.0125

Data Header:			0.254_solid_dimension_typei_4545_r0			Time:	57.7554	s	4/14/2019 4:55:49 AM
Data Acquisition:	Timed
Station Name:	ft40.cfg
Test File Name:	monotonic_0.2540_typei_solid_4545_dimension.tst
Displacement	Force	Running Time
mm	N	s
13.2852	1089.726	40.0222
13.2912	1089.07	40.0906
13.29673	1091.3	40.1589
13.3029	1086.01	40.2273
13.3078	1083.543	40.2957
13.3137	1076.02	40.364
13.3203	1073.31	40.4324
13.3267	1070.15	40.5007
13.332	1075.19	40.5691
13.3375	1080.51	40.6375
13.3427	1083.88	40.7058
13.35	1090.32	40.77417
13.35546	1090.35	40.8425
13.3602	1089.42	40.9109
13.3656	1086.95	40.9792
13.3713	1079.573	41.0476
13.377	1072.66	41.116
13.3831	1070.36	41.1843
13.3884	1073.7	41.2527
13.394	1074.67	41.321
13.3997	1081.22	41.3894
13.40531	1087.3	41.4578
13.4106	1087.67	41.5261
13.4166	1090.51	41.5945
13.4219	1089.1	41.6628
13.4282	1082.864	41.7312
13.4336	1075.55	41.7996
13.4393	1071.03	41.86792
13.4441	1071.55	41.9363
13.4517	1073.56	42.0046
13.4571	1077.16	42.073
13.4632	1083.241	42.1414
13.468	1086.833	42.2097
13.4735	1089.37	42.2781
13.4793	1091.51	42.3464
13.4848	1086.03	42.4148
13.49	1077.78	42.4832
13.49621	1074.09	42.5515
13.502	1071.97	42.6199
13.508	1070.38	42.6882
13.5141	1075.04	42.7566
13.5194	1079.28	42.825
13.5244	1082.68	42.8933
13.5308	1089.7	42.96167
13.5366	1092.61	43.03
13.5426	1087.1	43.0984
13.5489	1080.63	43.1667
13.55303	1078	43.2351
13.5582	1073.58	43.3035
13.5645	1070.04	43.3718
13.5705	1071.282	43.4402
13.5753	1076.46	43.5085
13.5809	1078.98	43.5769
13.5879	1086.3	43.6453
13.5936	1089.66	43.7136
13.5975	1086.84	43.782
13.6048	1083.78	43.8503
13.6102	1083.203	43.9187
13.6161	1074.59	43.9871
13.62148	1068.22	44.05542
13.628	1071.32	44.1238
13.6325	1072.99	44.1921
13.6377	1076.62	44.2605
13.646	1081.7	44.3289
13.6502	1088.76	44.3972
13.6564	1085.41	44.4656
13.6621	1085.18	44.5339
13.6673	1085.67	44.6023
13.6727	1078.08	44.6707
13.6789	1073.02	44.739
13.6844	1071.63	44.8074
13.69	1069.07	44.8757
13.6962	1072.99	44.9441
13.7012	1078.19	45.0125
13.7073	1083.47	45.0808
13.7122	1084.83	45.14917
13.7183	1088.14	45.2175
13.725	1089.63	45.2859
13.7296	1082.39	45.3542
13.7349	1072.76	45.4226
13.7408	1072.44	45.491
13.7469	1069.71	45.5593
13.7533	1070.75	45.6277
13.7593	1075.11	45.696
13.7642	1079.03	45.7644
13.7693	1080.63	45.8328
13.77595	1086.72	45.9011
13.781	1089.062	45.9695
13.7869	1084.51	46.0378
13.793	1078.86	46.1062
13.7979	1075.66	46.1746
13.8035	1071.71	46.24292
13.8092	1071.09	46.3113
13.8151	1073.73	46.3796
13.8219	1076.46	46.448
13.8275	1080.52	46.5164
13.8325	1086.52	46.5847
13.8378	1088.7	46.6531
13.8439	1086.118	46.7214
13.8501	1083.72	46.7898
13.8556	1078.2	46.8582
13.8602	1074.16	46.9265
13.8665	1071.15	46.9949
13.8722	1070.21	47.0632
13.8793	1071.17	47.1316
13.8826	1075.483	47.2
13.8898	1083.78	47.2683
13.8947	1086.449	47.33667
13.9014	1088.53	47.405
13.907	1085.76	47.4734
13.9122	1079.696	47.5417
13.9176	1076.95	47.6101
13.92329	1072.65	47.6785
13.9299	1068.66	47.7468
13.9357	1067.62	47.8152
13.9404	1072.87	47.8835
13.9459	1080.23	47.9519
13.9527	1081.55	48.0203
13.9577	1086.8	48.0886
13.96403	1086.54	48.157
13.969	1082.62	48.2253
13.9745	1080.05	48.2937
13.9806	1074.48	48.3621
13.9863	1068.52	48.43042
13.9926	1066.42	48.4988
13.997	1072.88	48.5671
14.0031	1075.26	48.6355
14.0096	1079.99	48.7039
14.0151	1085.687	48.7722
14.0194	1085.92	48.8406
14.0271	1086.73	48.9089
14.03091	1082.939	48.9773
14.0379	1077.95	49.0457
14.0445	1069.6	49.114
14.0494	1067.92	49.1824
14.0544	1070.11	49.2507
14.0593	1070.87	49.3191
14.0656	1075.11	49.3875
14.0718	1082.501	49.4558
14.0768	1083.14	49.52417
14.0835	1087.07	49.5925
14.0882	1087.17	49.6609
14.0943	1079.81	49.7292
14.0995	1072.97	49.7976
14.106	1069.696	49.866
14.1118	1069.25	49.9343
14.1166	1065.67	50.0027
14.1229	1072.632	50.071
14.1288	1078.47	50.1394
14.1342	1082.17	50.2078
14.14	1086.517	50.2761
14.1456	1088.21	50.3445
14.151	1082.17	50.4128
14.1567	1074.24	50.4812
14.1628	1073.27	50.5496
14.169	1069.72	50.61792
14.1746	1066.19	50.6863
14.1793	1069.26	50.7546
14.1864	1074.24	50.823
14.1912	1077.94	50.8914
14.19663	1083.859	50.9597
14.202	1088.63	51.0281
14.2095	1083.23	51.0964
14.21361	1076.54	51.1648
14.2206	1076.88	51.2332
14.2255	1069.65	51.3015
14.2309	1065.47	51.3699
14.2377	1068.29	51.4382
14.2425	1070.31	51.5066
14.2483	1074.48	51.575
14.2543	1082.12	51.6433
14.2602	1084.33	51.71167
14.2659	1082.36	51.78
14.2712	1080.07	51.8484
14.2767	1080.359	51.9167
14.2836	1072.64	51.9851
14.2885	1066.32	52.0535
14.2931	1066.829	52.1218
14.2994	1066.75	52.1902
14.3046	1071.35	52.2585
14.3106	1077.9	52.3269
14.3161	1081.88	52.3953
14.3229	1081.58	52.4636
14.3286	1082.86	52.532
14.333	1084.79	52.6003
14.3381	1074.86	52.6687
14.3448	1070.54	52.7371
14.3509	1067.79	52.80542
14.3561	1066.37	52.8738
14.3616	1066.07	52.9421
14.3682	1073.46	53.0105
14.3742	1078.92	53.0789
14.38028	1078.63	53.1472
14.3844	1084.46	53.2156
14.3902	1083.47	53.2839
14.3962	1078.4	53.3523
14.4016	1072.76	53.4207
14.4078	1068.381	53.489
14.4128	1066.13	53.5574
14.4189	1064.71	53.6257
14.4249	1070.66	53.6941
14.4304	1071.93	53.7625
14.437	1075.2	53.8308
14.4413	1079.93	53.89917
14.4473	1081.89	53.9675
14.45345	1079.32	54.0359
14.4591	1076.13	54.1042
14.46481	1068.59	54.1726
14.4695	1067.303	54.241
14.4763	1065.66	54.3093
14.4814	1065.07	54.3777
14.4874	1065.77	54.446
14.4932	1072.09	54.5144
14.4983	1079.18	54.5828
14.5042	1080	54.6511
14.5099	1079.96	54.7195
14.5145	1077.58	54.7878
14.5218	1069.29	54.8562
14.528	1065.26	54.9246
14.5322	1062.83	54.99292
14.5386	1058.67	55.0613
14.5447	1058.06	55.1296
14.5505	1062.6	55.198
14.5639	-39.4304	55.2664
14.564	-34.5132	55.3347
14.5689	-29.3592	55.4031
14.575	-30.42318	55.4714
14.5787	-34.719	55.5398
14.5844	-38.0184	55.6082
14.5903	-43.6927	55.6765
14.5973	-50.291	55.7449
14.6017	-49.3702	55.8132
14.6077	-44.1651	55.8816
14.6129	-41.8732	55.95
14.6183	-36.78791	56.0183
14.6241	-30.9549	56.08667
14.6295	-32.2421	56.155
14.6348	-33.595	56.2234
14.6411	-35.63979	56.2917
14.64792	-42.1509	56.3601
14.6538	-51.2827	56.4285
14.6597	-49.3508	56.4968
14.6642	-45.44677	56.5652
14.6701	-46.5575	56.6335
14.676	-42.6829	56.7019
14.6817	-34.4468	56.7703
14.6878	-34.8543	56.8386
14.6929	-32.3555	56.907
14.6984	-33.5583	56.9753
14.7047	-41.0962	57.0437
14.711	-47.9933	57.1121
14.7168	-46.5591	57.18042
14.7205	-48.21096	57.2488
14.7275	-49.2998	57.3171
14.7318	-44.8966	57.3855
14.738	-37.4086	57.4539
14.7439	-34.07449	57.5222
14.7494	-32.74287	57.5906
14.7554	-31.3591	57.6589
14.7613	-37.836	57.7273
14.7629	-50.0641	57.7468