File: data/processed_data_files/tensile/0.254_solid_uprint_typeiv_090_r(5).dat
MTS793|BTW|ENU|1|2|.|/|:|1|0|0|A

Data Header:			0.254_solid_uprint_typeiv_090_r0			Time:	20.0176	s	4/14/2019 1:09:21 AM
Data Acquisition:	Timed
Station Name:	ft40.cfg
Test File Name:	monotonic_0.2540_typeiv_solid_090_uprint.tst
Displacement	Force	Running Time
mm	N	s
-40.0406	-177.754	0.0227051
-40.0403	-177.121	0.0910645
-40.0352	-170.584	0.159424
-40.0289	-167.301	0.2277832
-40.0231	-164.016	0.296143
-40.0182	-158.234	0.364502
-40.0124	-154.828	0.432861
-40.007	-153.078	0.5012207
-40.0011	-150.11	0.56958
-39.9958	-148.042	0.637939
-39.9897	-149.7	0.706299
-39.9824	-145.044	0.7746582
-39.9781	-136.398	0.843018
-39.9726	-135.808	0.911377
-39.9669	-129.69	0.979736
-39.9619	-123.151	1.0481
-39.9554	-120.4615	1.11646
-39.9499	-118.613	1.18481
-39.9431	-115.152	1.25317
-39.9377	-113.108	1.32153
-39.9323	-116.0426	1.38989
-39.92712	-110.373	1.458252
-39.9216	-104.642	1.52661
-39.9149	-102.426	1.59497
-39.91	-97.3581	1.66333
-39.9043	-91.0122	1.73169
-39.8991	-88.0912	1.80005
-39.8924	-82.2421	1.86841
-39.888	-78.31678	1.93677
-39.8814	-78.6878	2.005127
-39.87627	-80.1391	2.07349
-39.8689	-74.8886	2.14185
-39.864	-71.2323	2.21021
-39.8586	-70.6981	2.27856
-39.8527	-65.0421	2.34692
-39.8469	-58.39122	2.41528
-39.8418	-52.52697	2.48364
-39.8368	-49.272	2.552002
-39.8308	-44.8352	2.62036
-39.8244	-45.5003	2.68872
-39.8187	-44.1452	2.75708
-39.8133	-39.0891	2.82544
-39.8077	-37.8018	2.8938
-39.8024	-37.1202	2.96216
-39.7965	-31.8879	3.03052
-39.79076	-28.4636	3.098877
-39.7849	-20.6082	3.16724
-39.77874	-16.3907	3.2356
-39.773	-12.0964	3.30396
-39.7676	-12.9424	3.37231
-39.7617	-9.69984	3.44067
-39.756	-5.20346	3.50903
-39.75005	-5.86789	3.57739
-39.7455	-4.04314	3.645752
-39.7394	3.64566	3.71411
-39.7341	4.87099	3.78247
-39.727	12.5949	3.85083
-39.7222	18.0075	3.91919
-39.7166	20.3424	3.98755
-39.71069	25.1226	4.05591
-39.70631	28.4483	4.12427
-39.6992	29.0022	4.192627
-39.6936	28.7109	4.26099
-39.6875	32.8465	4.32935
-39.6822	33.5999	4.39771
-39.6765	39.3879	4.46606
-39.6711	47.9553	4.53442
-39.6641	51.69416	4.60278
-39.6595	54.09269	4.67114
-39.6543	58.9901	4.739502
-39.6495	64.1014	4.80786
-39.6426	62.9617	4.87622
-39.6368	61.6876	4.94458
-39.6296	66.2749	5.01294
-39.6259	67.1164	5.0813
-39.6202	73.7912	5.14966
-39.6146	78.3982	5.21802
-39.6085	82.51635	5.286377
-39.6033	83.6885	5.35474
-39.5968	90.0335	5.4231
-39.5911	96.0909	5.49146
-39.5851	96.2909	5.55981
-39.579	98.6479	5.62817
-39.5743	100.615	5.69653
-39.5687	101.829	5.76489
-39.5633	105.925	5.833252
-39.5573	112.9	5.90161
-39.5519	113.4474	5.96997
-39.546	113.836	6.03833
-39.5393	122.413	6.10669
-39.5341	130.447	6.17505
-39.5285	129.787	6.24341
-39.5226	133.115	6.31177
-39.5162	135.177	6.380127
-39.5117	134.302	6.44849
-39.5052	139.0442	6.51685
-39.5015	143.055	6.58521
-39.4943	144.571	6.65356
-39.48999	146.906	6.72192
-39.4832	157.113	6.79028
-39.4776	160.318	6.85864
-39.47271	161.852	6.927002
-39.466	166.351	6.99536
-39.4604	168.762	7.06372
-39.4546	167.73	7.13208
-39.4496	172.064	7.20044
-39.4433	175.528	7.2688
-39.4368	175.5025	7.33716
-39.4301	177.117	7.40552
-39.4255	186.834	7.473877
-39.4202	190.377	7.54224
-39.4147	192.761	7.6106
-39.41	198.012	7.67896
-39.404	201.091	7.74731
-39.3984	203.038	7.81567
-39.392	205.131	7.88403
-39.38689	205.958	7.95239
-39.3816	204.51	8.020752
-39.3752	209.344	8.08911
-39.3699	217.154	8.15747
-39.3637	220.631	8.22583
-39.3574	224.137	8.29419
-39.352	231.258	8.36255
-39.3466	233.081	8.43091
-39.3397	233.489	8.49927
-39.3353	238.083	8.567627
-39.3294	237.369	8.63599
-39.3234	235.862	8.70435
-39.3179	238.819	8.77271
-39.3124	247.247	8.84106
-39.3056	250.649	8.90942
-39.3016	253.528	8.97778
-39.2952	259.489	9.04614
-39.2885	262.534	9.114502
-39.2844	266.587	9.18286
-39.2782	267.796	9.25122
-39.2728	269.066	9.31958
-39.2658	267.641	9.38794
-39.261	270.46	9.4563
-39.25494	276.108	9.52466
-39.2498	278.53	9.59302
-39.2436	283.405	9.661377
-39.2386	287.093	9.72974
-39.2318	291.328	9.7981
-39.2279	298.021	9.86646
-39.2213	299.827	9.93481
-39.2147	298.077	10.0032
-39.2109	298.094	10.0715
-39.2036	301.786	10.1399
-39.1983	304.655	10.2083
-39.1936	306.266	10.2766
-39.1866	308.943	10.345
-39.1816	313.869	10.41333
-39.176	320.442	10.4817
-39.1706	324.433	10.55
-39.1642	328.296	10.6184
-39.1592	328.126	10.6868
-39.1518	327.296	10.7551
-39.1464	329.7131	10.8235
-39.1405	330.132	10.8918
-39.1362	332.718	10.9602
-39.1295	338.583	11.0286
-39.1239	339.296	11.0969
-39.11974	345.571	11.1653
-39.1133	353.151	11.2336
-39.1071	353.712	11.302
-39.1003	354.097	11.3704
-39.0952	357.48	11.4387
-39.0915	360.936	11.50708
-39.0846	357.6098	11.5754
-39.0786	359.778	11.6438
-39.0733	362.015	11.7122
-39.0675	362.917	11.7805
-39.06163	370.63	11.8489
-39.0565	375.194	11.9172
-39.0502	380.295	11.9856
-39.0462	377.387	12.054
-39.0387	382.138	12.1223
-39.034	385.337	12.1907
-39.0272	381.797	12.259
-39.0228	382.996	12.3274
-39.0163	385.719	12.3958
-39.00988	386.445	12.4641
-39.0049	390.748	12.5325
-38.9998	398.236	12.60083
-38.9932	399.299	12.6692
-38.9871	400.106	12.7375
-38.9822	403.381	12.8059
-38.9771	406.634	12.8743
-38.9708	404.27	12.9426
-38.9644	404.135	13.011
-38.9578	406.424	13.0793
-38.95253	406.398	13.1477
-38.9489	410.11	13.2161
-38.9418	415.155	13.2844
-38.9353	417.672	13.3528
-38.9304	415.604	13.4211
-38.9251	423.6839	13.4895
-38.9199	423.8	13.5579
-38.9145	422.495	13.6262
-38.9071	422.206	13.69458
-38.9021	423.457	13.7629
-38.8966	422.905	13.8313
-38.8906	424.456	13.8997
-38.886	426.836	13.968
-38.8798	427.767	14.0364
-38.8742	427.975	14.1047
-38.86869	433.753	14.1731
-38.8629	435.398	14.2415
-38.856	432.378	14.3098
-38.8504	431.917	14.3782
-38.8448	432.124	14.4465
-38.8396	431.589	14.5149
-38.8346	432.616	14.5833
-38.82798	431.518	14.6516
-38.8227	432.814	14.72
-38.8161	434.281	14.78833
-38.8106	437.838	14.8567
-38.8048	440.962	14.925
-38.8	439.8851	14.9934
-38.7941	436.962	15.0618
-38.7891	436.57	15.1301
-38.7819	436.535	15.1985
-38.7766	436.3631	15.2668
-38.7701	435.6857	15.3352
-38.766	434.047	15.4036
-38.7596	434.989	15.4719
-38.7551	439.074	15.5403
-38.74844	440.8703	15.6086
-38.7424	441.353	15.677
-38.7376	440.205	15.7454
-38.7325	436.609	15.8137
-38.7249	438.8775	15.88208
-38.7198	436.995	15.9504
-38.71381	433.544	16.0188
-38.7069	431.652	16.0872
-38.70269	433.08	16.1555
-38.6973	434.42	16.2239
-38.692	437.183	16.2922
-38.6854	439.158	16.3606
-38.6802	436.321	16.429
-38.6748	433.788	16.4973
-38.6694	437.053	16.5657
-38.6625	434.897	16.634
-38.6576	430.193	16.7024
-38.65221	427.188	16.7708
-38.6457	429.944	16.8391
-38.639	431.936	16.9075
-38.6353	431.658	16.97583
-38.6289	433.7775	17.0442
-38.6228	435.196	17.1125
-38.6183	433.367	17.1809
-38.6105	434.992	17.2493
-38.6064	432	17.3176
-38.6013	428.066	17.386
-38.595	424.273	17.4543
-38.5886	427.202	17.5227
-38.5832	426.405	17.5911
-38.577	424.078	17.6594
-38.5715	428.611	17.7278
-38.566	429.727	17.7961
-38.5606	431.418	17.8645
-38.5539	432.042	17.9329
-38.5492	431.747	18.0012
-38.5432	424.717	18.06958
-38.5372	420.611	18.1379
-38.5311	424.168	18.2063
-38.5251	423.396	18.2747
-38.52029	423.034	18.343
-38.51516	422.84	18.4114
-38.5095	427.883	18.4797
-38.5019	427.164	18.5481
-38.4987	429.136	18.6165
-38.4923	429.696	18.6848
-38.4865	423.99	18.7532
-38.4809	419.069	18.8215
-38.4747	423.038	18.8899
-38.4683	421.525	18.9583
-38.4632	418.0199	19.0266
-38.4591	420.892	19.095
-38.4523	423.61	19.16333
-38.4463	424.611	19.2317
-38.4409	427.318	19.3
-38.4345	428.762	19.3684
-38.4291	424.261	19.4368
-38.4239	421.054	19.5051
-38.4183	424.186	19.5735
-38.4125	419.534	19.6418
-38.4073	416.237	19.7102
-38.40007	419.67	19.7786
-38.3954	420.224	19.8469
-38.3898	422.7	19.9153
-38.38393	424.9252	19.9836
-38.3814	417.681	20.0129

Data Header:			0.254_solid_uprint_typeiv_090_r0			Time:	23.6814	s	4/14/2019 1:09:24 AM
Data Acquisition:	Timed
Station Name:	ft40.cfg
Test File Name:	monotonic_0.2540_typeiv_solid_090_uprint.tst
Displacement	Force	Running Time
mm	N	s
-38.3809	417.746	20.0227
-38.3789	421.401	20.0422
-38.378	421.938	20.0618
-38.3752	415.97	20.0813
-38.3737	422.256	20.10083
-38.3729	423.1506	20.1204
-38.3708	418.59	20.1399
-38.3695	416.2551	20.1594
-38.3675	423.346	20.179
-38.36565	420.869	20.1985
-38.36446	418.617	20.218
-38.3613	419.504	20.2375
-38.361	421.418	20.25708
-38.3601	416.554	20.2766
-38.3586	423.479	20.2961
-38.355	421.477	20.3157
-38.3548	416.916	20.3352
-38.3528	419.434	20.3547
-38.3512	425.465	20.3743
-38.3495	415.258	20.3938
-38.3487	417.689	20.41333
-38.3474	423.228	20.4329
-38.3451	418.054	20.4524
-38.3434	415.797	20.4719
-38.3406	421.893	20.4915
-38.3405	414.499	20.511
-38.3385	415.781	20.5305
-38.3372	422.879	20.55
-38.3347	416.617	20.56958
-38.3327	413.313	20.5891
-38.33176	421.363	20.6086
-38.33	420.949	20.6282
-38.3292	412.1601	20.6477
-38.3266	420.691	20.6672
-38.3249	417.943	20.6868
-38.3228	414.832	20.7063
-38.3222	417.104	20.72583
-38.3203	420.901	20.7454
-38.3187	413.908	20.7649
-38.3164	418.044	20.7844
-38.3158	419.195	20.804
-38.3141	417.2753	20.8235
-38.3132	413.74	20.843
-38.3103	419.339	20.8625
-38.3092	417.038	20.88208
-38.3079	415.411	20.9016
-38.306	416.08	20.9211
-38.3045	419.222	20.9407
-38.3031	413.2468	20.9602
-38.3002	418.375	20.9797
-38.2991	418.379	20.9993
-38.298	411.579	21.0188
-38.2953	413.462	21.03833
-38.2935	419.506	21.0579
-38.2933	411.517	21.0774
-38.2903	411.233	21.0969
-38.2892	419.833	21.1165
-38.2877	413.697	21.136
-38.2869	412.585	21.1555
-38.28437	418.328	21.175
-38.2828	412.693	21.19458
-38.2815	406.7	21.2141
-38.2792	417.118	21.2336
-38.278	412.5546	21.2532
-38.2768	406.3316	21.2727
-38.2753	411.707	21.2922
-38.27351	413.454	21.3118
-38.2713	405.932	21.3313
-38.2696	408.437	21.35083
-38.2679	406.51	21.3704
-38.2671	401.056	21.3899
-38.2649	398.165	21.4094
-38.2611	-83.8032	21.429
-38.2589	-32.46616	21.4485
-38.2576	-40.3459	21.468
-38.2589	-39.3065	21.4875
-38.255	-39.0131	21.50708
-38.2544	-46.6875	21.5266
-38.2531	-38.8124	21.5461
-38.2509	-40.38755	21.5657
-38.2494	-43.2828	21.5852
-38.2482	-41.9208	21.6047
-38.2475	-39.6103	21.6243
-38.2447	-46.4235	21.6438
-38.2434	-43.0706	21.66333
-38.24194	-36.7241	21.6829
-38.24081	-45.5137	21.7024
-38.2389	-45.7271	21.7219
-38.2356	-38.0128	21.7415
-38.2356	-43.8887	21.761
-38.2339	-46.9025	21.7805
-38.23167	-38.5916	21.8
-38.2306	-43.0024	21.81958
-38.2284	-46.7266	21.8391
-38.2271	-39.1077	21.8586
-38.22525	-41.7798	21.8782
-38.2239	-46.6352	21.8977
-38.2224	-38.0527	21.9172
-38.22	-41.334	21.9368
-38.2188	-44.908	21.9563
-38.2178	-43.7911	21.97583
-38.2152	-39.7946	21.9954
-38.2149	-44.2184	22.0149
-38.2127	-41.3173	22.0344
-38.211	-42.4328	22.054
-38.2089	-42.2207	22.0735
-38.2076	-45.436	22.093
-38.2057	-39.161	22.1125
-38.2047	-43.3314	22.13208
-38.2025	-45.5763	22.1516
-38.2015	-41.8514	22.1711
-38.1998	-40.145	22.1907
-38.1975	-48.4818	22.2102
-38.1971	-42.6183	22.2297
-38.19508	-39.1161	22.2493
-38.1936	-43.8551	22.2688
-38.1916	-45.0454	22.28833
-38.191	-39.04	22.3079
-38.1888	-46.38932	22.3274
-38.1873	-44.392	22.3469
-38.1852	-38.1821	22.3665
-38.1837	-44.3308	22.386
-38.1824	-47.7287	22.4055
-38.18	-39.0645	22.425
-38.1781	-42.4433	22.44458
-38.1766	-47.82375	22.4641
-38.17514	-39.2345	22.4836
-38.1738	-42.2877	22.5032
-38.1719	-45.4653	22.5227
-38.1704	-42.3612	22.5422
-38.1684	-40.91486	22.5618
-38.1681	-47.2233	22.5813
-38.1651	-41.3871	22.60083
-38.16325	-40.1339	22.6204
-38.1617	-44.2286	22.6399
-38.1607	-45.3153	22.6594
-38.1603	-38.3657	22.679
-38.1567	-44.0535	22.6985
-38.155	-43.4167	22.718
-38.1548	-42.8057	22.7375
-38.1535	-41.065	22.75708
-38.1515	-46.5066	22.7766
-38.1486	-39.6381	22.7961
-38.1471	-40.3693	22.8157
-38.1457	-44.8074	22.8352
-38.144	-43.8742	22.8547
-38.1429	-38.9721	22.8743
-38.1413	-47.1814	22.8938
-38.13932	-43.2644	22.91333
-38.1375	-40.5493	22.9329
-38.1362	-44.7705	22.9524
-38.1342	-44.4356	22.9719
-38.1336	-39.5636	22.9915
-38.1316	-46.0481	23.011
-38.12991	-45.8128	23.0305
-38.12775	-37.5232	23.05
-38.126	-43.3872	23.06958
-38.1251	-48.042	23.0891
-38.1231	-40.9515	23.1086
-38.1225	-39.8448	23.1282
-38.1212	-45.7306	23.1477
-38.1178	-39.0128	23.1672
-38.1171	-41.5563	23.1868
-38.1138	-45.4954	23.2063
-38.1131	-43.967	23.22583
-38.1121	-38.6327	23.2454
-38.1105	-45.8639	23.2649
-38.1088	-42.0817	23.2844
-38.1073	-39.6706	23.304
-38.1049	-42.40757	23.3235
-38.1036	-45.34589	23.343
-38.1017	-40.0164	23.3625
-38.1011	-41.3826	23.38208
-38.0993	-43.9554	23.4016
-38.0976	-44.324	23.4211
-38.095	-40.458	23.4407
-38.0943	-46.8802	23.4602
-38.0916	-40.567	23.4797
-38.091	-39.5985	23.4993
-38.09	-46.1242	23.5188
-38.0864	-45.7119	23.53833
-38.08569	-39.0558	23.5579
-38.0845	-45.899	23.5774
-38.0823	-45.218	23.5969
-38.0803	-39.73204	23.6165
-38.0796	-43.7462	23.636
-38.0786	-46.0606	23.6555
-38.076	-38.08321	23.675