File: data/processed_data_files/tensile/0.254_solid_dimension_typeiv_4545_r(5).dat
MTS793|BTW|ENU|1|2|.|/|:|1|0|0|A

Data Header:			0.254_solid_dimension_typeiv_4545_r0			Time:	20.0173	s	4/13/2019 8:44:30 PM
Data Acquisition:	Timed
Station Name:	ft40.cfg
Test File Name:	monotonic_0.2540_typeiv_solid_4545_dimension.tst
Displacement	Force	Running Time
mm	N	s
-40.0341	-226.807	0.0219727
-40.0316	-224.125	0.090332
-40.0267	-226.013	0.158691
-40.0196	-222.951	0.227051
-40.0153	-216.8266	0.29541
-40.01	-215.346	0.36377
-40.00457	-213.824	0.432129
-39.9978	-205.982	0.500488
-39.99258	-201.182	0.568848
-39.9864	-197.438	0.637207
-39.9813	-191.07	0.705566
-39.975	-185.663	0.773926
-39.9692	-186.053	0.842285
-39.9636	-182.074	0.910645
-39.9585	-176.488	0.979004
-39.9521	-175.4191	1.04736
-39.9468	-174.706	1.11572
-39.94072	-168.592	1.184082
-39.9353	-163.924	1.25244
-39.9297	-157.557	1.3208
-39.9237	-152.174	1.38916
-39.919	-144.972	1.45752
-39.9132	-145.704	1.52588
-39.9066	-142.629	1.59424
-39.9013	-136.0739	1.6626
-39.8961	-134.241	1.730957
-39.8907	-132.597	1.79932
-39.8841	-128.78	1.86768
-39.87788	-125.032	1.93604
-39.8741	-118.528	2.00439
-39.8673	-114.574	2.07275
-39.8615	-108.443	2.14111
-39.8554	-105.782	2.20947
-39.8497	-101.058	2.277832
-39.8445	-95.87606	2.34619
-39.8404	-93.2149	2.41455
-39.8327	-91.9352	2.48291
-39.82682	-88.8951	2.55127
-39.8218	-86.8594	2.61963
-39.8155	-78.8689	2.68799
-39.8094	-75.2734	2.75635
-39.8044	-70.7885	2.824707
-39.7988	-67.3562	2.89307
-39.794	-59.3332	2.96143
-39.7875	-53.369	3.02979
-39.7823	-53.3218	3.09814
-39.7763	-49.254	3.1665
-39.7694	-48.4526	3.23486
-39.764	-47.3162	3.30322
-39.7589	-40.11879	3.371582
-39.7532	-35.0053	3.43994
-39.7468	-32.7753	3.5083
-39.7419	-29.6288	3.57666
-39.73698	-20.5368	3.64502
-39.7305	-14.9009	3.71338
-39.725	-14.3407	3.78174
-39.7186	-10.8383	3.8501
-39.7134	-4.49376	3.918457
-39.7072	-6.00793	3.98682
-39.7017	-2.37757	4.05518
-39.6962	4.70705	4.12354
-39.6909	6.824564	4.19189
-39.68383	8.813385	4.26025
-39.6796	17.08466	4.32861
-39.6734	25.7149	4.39697
-39.6681	26.7547	4.465332
-39.6613	31.1017	4.53369
-39.6568	34.74654	4.60205
-39.6519	34.9205	4.67041
-39.6443	38.435	4.73877
-39.63895	42.364	4.80713
-39.6337	44.4509	4.87549
-39.6274	49.02401	4.94385
-39.623	55.3299	5.012207
-39.6172	65.9227	5.08057
-39.6115	65.72905	5.14893
-39.6053	70.5112	5.21729
-39.59848	74.1282	5.28564
-39.5944	75.3603	5.354
-39.58847	79.7323	5.42236
-39.5821	81.8562	5.49072
-39.5757	83.1712	5.559082
-39.5713	85.3613	5.62744
-39.5651	93.9306	5.6958
-39.5588	101.273	5.76416
-39.5525	105.723	5.83252
-39.5481	110.769	5.90088
-39.5435	112.509	5.96924
-39.5368	115.608	6.0376
-39.5313	120.4	6.105957
-39.5262	121.015	6.17432
-39.51973	122.74	6.24268
-39.5139	125.277	6.31104
-39.5089	135.523	6.37939
-39.5032	139.645	6.44775
-39.4964	143.5127	6.51611
-39.4914	151.088	6.58447
-39.486	154.484	6.652832
-39.4802	156.0715	6.72119
-39.4748	160.854	6.78955
-39.468	160.79	6.85791
-39.4623	161.324	6.92627
-39.4584	164.018	6.99463
-39.4527	171.973	7.06299
-39.4455	176.291	7.13135
-39.4407	179.596	7.199707
-39.4348	187.559	7.26807
-39.4295	191.618	7.33643
-39.4234	194.797	7.40479
-39.4166	198.974	7.47314
-39.4126	201.455	7.5415
-39.4066	200.506	7.60986
-39.4002	201.434	7.67822
-39.3944	210.6929	7.746582
-39.389	213.514	7.81494
-39.3827	217.537	7.8833
-39.3777	224.341	7.95166
-39.372	229.929	8.02002
-39.36599	232.969	8.08838
-39.3615	236.87	8.15674
-39.3539	240.234	8.2251
-39.3496	239.075	8.293457
-39.3436	239.667	8.36182
-39.3378	247.813	8.43018
-39.3322	250.1694	8.49854
-39.3271	254.177	8.56689
-39.3218	259.818	8.63525
-39.3143	266.757	8.70361
-39.3096	270.771	8.77197
-39.3024	275.596	8.840332
-39.298	279.43	8.90869
-39.2923	278.105	8.97705
-39.2863	279.166	9.04541
-39.2799	287.067	9.11377
-39.2756	288.008	9.18213
-39.27	289.865	9.25049
-39.2639	296.085	9.31885
-39.259	301.1886	9.387207
-39.2511	308.099	9.45557
-39.24659	313.116	9.52393
-39.2417	313.496	9.59229
-39.2346	315.809	9.66064
-39.2293	316.412	9.729
-39.22353	322.43	9.79736
-39.2179	325.2756	9.86572
-39.21344	326.383	9.934082
-39.2074	331.588	10.0024
-39.20145	335.8811	10.0708
-39.1946	342.966	10.13916
-39.1903	348.7124	10.20752
-39.18383	351.3165	10.2759
-39.1797	351.015	10.3442
-39.1728	356.56	10.4126
-39.16782	359.9248	10.481
-39.1616	359.673	10.5493
-39.1561	361.922	10.6177
-39.1494	368.2276	10.686
-39.1446	369.352	10.7544
-39.1381	377.462	10.8228
-39.1334	384.034	10.8911
-39.1261	386.222	10.9595
-39.1213	387.719	11.0278
-39.1166	392.484	11.0962
-39.1108	397.04	11.1646
-39.10368	395.524	11.23291
-39.0988	399.1	11.30127
-39.0937	402.759	11.3696
-39.0871	404.943	11.438
-39.0821	409.402	11.5063
-39.0758	417.854	11.5747
-39.0693	421.161	11.6431
-39.0649	420.998	11.7114
-39.0588	427.0593	11.7798
-39.0518	432.366	11.8481
-39.0471	430.874	11.9165
-39.042	431.774	11.9849
-39.0361	436.545	12.0532
-39.0301	437.261	12.1216
-39.0252	442.325	12.1899
-39.0199	448.798	12.2583
-39.0142	453.852	12.32666
-39.0071	454.295	12.39502
-39.0019	459.556	12.4634
-38.9963	465.79	12.5317
-38.9905	464.63	12.6001
-38.9845	464.767	12.6685
-38.9796	469.119	12.7368
-38.97448	468.527	12.8052
-38.9685	473.0947	12.8735
-38.9607	479.653	12.9419
-38.9553	481.73	13.0103
-38.9497	486.149	13.0786
-38.9448	490.867	13.147
-38.93985	495.121	13.2153
-38.9336	495.602	13.2837
-38.9276	497.49	13.3521
-38.9223	497.683	13.42041
-38.9158	497.961	13.48877
-38.909	502.633	13.5571
-38.9055	506.235	13.6255
-38.89922	508.923	13.6938
-38.8933	512.484	13.7622
-38.888	518.948	13.8306
-38.8823	522.924	13.8989
-38.8769	522.687	13.9673
-38.8703	527.027	14.0356
-38.865	526.703	14.104
-38.8593	527.357	14.1724
-38.8539	529.993	14.2407
-38.84771	531.829	14.3091
-38.8426	532.335	14.3774
-38.8366	534.9	14.4458
-38.8309	543.385	14.51416
-38.8252	547.624	14.58252
-38.8202	547.758	14.6509
-38.8146	550.649	14.7192
-38.80838	553.089	14.7876
-38.8024	550.859	14.856
-38.79604	551.651	14.9243
-38.7912	555.295	14.9927
-38.7856	553.336	15.061
-38.781	554.657	15.1294
-38.7745	563.1908	15.1978
-38.7681	566.629	15.2661
-38.7623	567.431	15.3345
-38.7571	571.009	15.4028
-38.7517	571.474	15.4712
-38.7453	569.438	15.5396
-38.7408	570.159	15.60791
-38.7346	570.517	15.67627
-38.7282	568.302	15.7446
-38.7226	569.349	15.813
-38.7167	577.65	15.8813
-38.7118	577.587	15.9497
-38.7053	579.138	16.0181
-38.7002	581.8736	16.0864
-38.69273	583.216	16.1548
-38.6883	582.248	16.2231
-38.68206	581.426	16.2915
-38.6767	580.628	16.3599
-38.6711	575.466	16.4282
-38.666	577.568	16.4966
-38.66	580.161	16.5649
-38.6541	582.222	16.6333
-38.6493	584.11	16.70166
-38.644	586.716	16.77002
-38.6369	585.873	16.8384
-38.63187	586.602	16.9067
-38.6253	586.456	16.9751
-38.6204	581.9054	17.0435
-38.6154	578.869	17.1118
-38.6085	578.0744	17.1802
-38.6032	580.475	17.2485
-38.59663	580.319	17.3169
-38.591	582.196	17.3853
-38.5874	584.57	17.4536
-38.58017	582.5387	17.522
-38.5747	584.576	17.5903
-38.5689	584.158	17.6587
-38.56316	580.887	17.7271
-38.5566	574.5097	17.79541
-38.5521	575.719	17.86377
-38.5473	576.344	17.9321
-38.5402	573.412	18.0005
-38.5343	575.764	18.0688
-38.53	578.969	18.1372
-38.5235	577.131	18.2056
-38.51683	580.936	18.2739
-38.5115	580.181	18.3423
-38.5067	576.548	18.4106
-38.5001	571.402	18.479
-38.4953	570.33	18.5474
-38.4887	571.8327	18.6157
-38.4825	569.668	18.6841
-38.4779	569.327	18.7524
-38.472	571.511	18.8208
-38.4666	572.229	18.88916
-38.46035	574.519	18.95752
-38.4551	576.05	19.0259
-38.4488	573.386	19.0942
-38.4434	567.372	19.1626
-38.4366	567.882	19.231
-38.4326	568.548	19.2993
-38.42625	562.701	19.3677
-38.4196	562.795	19.436
-38.415	566.38	19.5044
-38.4088	565.7204	19.5728
-38.4029	567.138	19.6411
-38.3972	569.236	19.7095
-38.3919	568.53	19.7778
-38.3865	565.501	19.8462
-38.3809	564.177	19.9146
-38.3751	562.124	19.98291
-38.3733	561.796	20.0122

Data Header:			0.254_solid_dimension_typeiv_4545_r0			Time:	40.0173	s	4/13/2019 8:44:50 PM
Data Acquisition:	Timed
Station Name:	ft40.cfg
Test File Name:	monotonic_0.2540_typeiv_solid_4545_dimension.tst
Displacement	Force	Running Time
mm	N	s
-38.3723	567.638	20.022
-38.3667	565.785	20.0903
-38.3609	565.618	20.1587
-38.3547	563.74	20.2271
-38.3485	556.774	20.29541
-38.3434	557.739	20.36377
-38.3378	561.06	20.4321
-38.3323	557.645	20.5005
-38.3268	558.344	20.5688
-38.3206	563.208	20.6372
-38.3147	563.707	20.7056
-38.3094	563.002	20.7739
-38.30283	562.471	20.8423
-38.2986	562.752	20.9106
-38.292	555.19	20.979
-38.2866	554.46	21.0474
-38.2803	557.886	21.1157
-38.2751	556.0495	21.1841
-38.2689	555.513	21.2524
-38.2632	557.127	21.3208
-38.2579	557.281	21.38916
-38.2531	559.474	21.45752
-38.2463	560.681	21.5259
-38.2411	559.277	21.5942
-38.2354	554.6969	21.6626
-38.2293	552.687	21.731
-38.2245	555.2597	21.7993
-38.2181	552.753	21.8677
-38.2108	552.753	21.936
-38.2076	552.999	22.0044
-38.20026	554.088	22.0728
-38.1959	557.359	22.1411
-38.1904	557.877	22.2095
-38.1842	558.931	22.2778
-38.1776	555.282	22.3462
-38.1731	552.927	22.4146
-38.1673	553.861	22.48291
-38.16011	548.883	22.55127
-38.155	551.936	22.6196
-38.1483	550.0011	22.688
-38.1443	549.538	22.7563
-38.1375	554.438	22.8247
-38.1324	558.325	22.8931
-38.1267	554.247	22.9614
-38.1213	552.668	23.0298
-38.1149	554.368	23.0981
-38.11	553.009	23.1665
-38.1052	549.901	23.2349
-38.0982	548.1012	23.3032
-38.0931	549.455	23.3716
-38.0863	547.552	23.4399
-38.0818	551.102	23.5083
-38.0761	552.97	23.57666
-38.0691	551.352	23.64502
-38.0649	551.449	23.7134
-38.0577	553.516	23.7817
-38.0528	553.908	23.8501
-38.0478	547.4386	23.9185
-38.0421	547.247	23.9868
-38.0365	547.906	24.0552
-38.0311	545.5141	24.1235
-38.02438	548.508	24.1919
-38.0191	550.85	24.2603
-38.0119	550.804	24.3286
-38.008	548.698	24.397
-38.0017	555.23	24.4653
-37.9956	552.979	24.5337
-37.991	548.377	24.6021
-37.9842	547.135	24.67041
-37.9787	547.267	24.73877
-37.9727	547.542	24.8071
-37.9676	546.742	24.8755
-37.9616	547.467	24.9438
-37.9566	547.666	25.0122
-37.9501	547.318	25.0806
-37.9455	552.475	25.1489
-37.9384	553.093	25.2173
-37.9333	549.624	25.2856
-37.9268	546.8	25.354
-37.9225	546.253	25.4224
-37.9166	544.165	25.4907
-37.911	543.852	25.5591
-37.9056	544.247	25.6274
-37.8992	544.801	25.6958
-37.894	546.723	25.76416
-37.8865	551.102	25.83252
-37.8827	550.851	25.9009
-37.8765	549.876	25.9692
-37.8721	547.839	26.0376
-37.8651	545.722	26.106
-37.8602	546.444	26.1743
-37.8546	546.037	26.2427
-37.8476	542.6394	26.311
-37.8421	543.075	26.3794
-37.8372	544.138	26.4478
-37.8307	548.802	26.5161
-37.8255	547.271	26.5845
-37.81884	549.985	26.6528
-37.8133	549.459	26.7212
-37.8082	545.539	26.7896
-37.8016	545.611	26.85791
-37.7974	544.442	26.92627
-37.7899	543.633	26.9946
-37.7846	539.248	27.063
-37.7788	542.449	27.1313
-37.7748	547.499	27.1997
-37.7675	545.672	27.2681
-37.7612	548.517	27.3364
-37.7573	550.061	27.4048
-37.7519	546.365	27.4731
-37.7446	543.113	27.5415
-37.7395	545.315	27.6099
-37.7339	542.995	27.6782
-37.73	539.186	27.7466
-37.7222	542.636	27.8149
-37.7171	546.922	27.8833
-37.7116	545.0824	27.95166
-37.7055	545.873	28.02002
-37.6996	549.693	28.0884
-37.6939	547.237	28.1567
-37.6881	546.226	28.2251
-37.68351	543.674	28.2935
-37.6775	542.235	28.3618
-37.6706	536.368	28.4302
-37.6665	539.806	28.4985
-37.661	543.33	28.5669
-37.65358	543.608	28.6353
-37.6482	543.686	28.7036
-37.6427	547.209	28.772
-37.6371	546.736	28.8403
-37.6324	546.132	28.9087
-37.626	545.332	28.9771
-37.62027	540.7959	29.04541
-37.614	537.441	29.11377
-37.6091	537.895	29.1821
-37.60358	541.737	29.2505
-37.597	539.916	29.3188
-37.5911	541.249	29.3872
-37.5846	545.357	29.4556
-37.5797	546.364	29.5239
-37.5737	547.649	29.5923
-37.5694	544.896	29.6606
-37.56358	541.152	29.729
-37.55759	538.97	29.7974
-37.5513	539.505	29.8657
-37.5464	540.722	29.9341
-37.5397	541.586	30.0024
-37.535	542.348	30.0708
-37.5278	544.119	30.13916
-37.5234	544.024	30.20752
-37.5175	547.775	30.2759
-37.5125	548.044	30.3442
-37.5061	541.852	30.4126
-37.5018	538.665	30.481
-37.4948	540.726	30.5493
-37.4894	539.13	30.6177
-37.4828	537.714	30.686
-37.4779	540.982	30.7544
-37.4724	541.536	30.8228
-37.4662	543.928	30.8911
-37.4597	546.62	30.9595
-37.4544	546.622	31.0278
-37.4499	541.673	31.0962
-37.444	539.086	31.1646
-37.4376	540.834	31.23291
-37.4322	539.4234	31.30127
-37.4257	535.916	31.3696
-37.421	537.5379	31.438
-37.4152	541.911	31.5063
-37.4089	540.8587	31.5747
-37.4028	543.74	31.6431
-37.3969	545.891	31.7114
-37.3916	543.089	31.7798
-37.3859	540.322	31.8481
-37.37973	542.075	31.9165
-37.3748	541.581	31.9849
-37.3705	536.632	32.0532
-37.36256	537.296	32.1216
-37.3572	540.118	32.1899
-37.3527	539.41	32.2583
-37.3471	541.769	32.32666
-37.3406	544.72	32.39502
-37.3347	541.88	32.4634
-37.3292	540.83	32.5317
-37.3232	541.636	32.6001
-37.3191	540.442	32.6685
-37.3118	537.184	32.7368
-37.3063	536.666	32.8052
-37.3013	537.888	32.8735
-37.29504	537.621	32.9419
-37.2898	539.702	33.0103
-37.2848	543.724	33.0786
-37.2794	541.106	33.147
-37.2729	541.729	33.2153
-37.2659	543.735	33.2837
-37.2615	542.539	33.3521
-37.2552	538.786	33.42041
-37.2501	537.605	33.48877
-37.2447	535.496	33.5571
-37.2386	537.522	33.6255
-37.2321	538.576	33.6938
-37.2265	540.4809	33.7622
-37.2217	539.6933	33.8306
-37.21505	542.599	33.8989
-37.2094	544.258	33.9673
-37.20406	540.417	34.0356
-37.1983	537.932	34.104
-37.1929	538.176	34.1724
-37.18642	533.675	34.2407
-37.1806	536.537	34.3091
-37.1751	538.478	34.3774
-37.16993	538.615	34.4458
-37.1646	537.017	34.51416
-37.15929	540.33	34.58252
-37.1529	545.128	34.6509
-37.1465	542.716	34.7192
-37.1411	540.026	34.7876
-37.136	540.224	34.856
-37.1311	536.397	34.9243
-37.1236	535.943	34.9927
-37.1175	537.057	35.061
-37.1131	537.117	35.1294
-37.10788	535.626	35.1978
-37.1013	538.722	35.2661
-37.0946	543.593	35.3345
-37.0902	541.388	35.4028
-37.0847	538.831	35.4712
-37.0781	540.858	35.5396
-37.0722	536.364	35.60791
-37.0678	535.943	35.67627
-37.06126	536.249	35.7446
-37.0558	536.585	35.813
-37.05101	534.021	35.8813
-37.04546	536.856	35.9497
-37.0394	543.26	36.0181
-37.0336	541.896	36.0864
-37.0286	539.584	36.1548
-37.0215	540.706	36.2231
-37.0171	538.423	36.2915
-37.0102	536.644	36.3599
-37.0046	535.295	36.4282
-36.9995	534.318	36.4966
-36.9927	533.7464	36.5649
-36.9865	534.495	36.6333
-36.9825	539.81	36.70166
-36.97533	540.106	36.77002
-36.9711	541.8266	36.8384
-36.9654	541.077	36.9067
-36.9585	537.938	36.9751
-36.953	539.623	37.0435
-36.9488	535.98	37.1118
-36.9425	535.399	37.1802
-36.93578	531.517	37.2485
-36.92984	533.838	37.3169
-36.9249	538.0636	37.3853
-36.9205	538.609	37.4536
-36.9131	539.788	37.522
-36.90728	540.059	37.5903
-36.903	539.7533	37.6587
-36.8978	539.491	37.7271
-36.8912	536.843	37.79541
-36.884	532.944	37.86377
-36.8801	531.147	37.9321
-36.8739	533.1261	38.0005
-36.8675	537.617	38.0688
-36.8627	536.681	38.1372
-36.856	539.213	38.2056
-36.8508	542.3587	38.2739
-36.8456	537.891	38.3423
-36.8387	539.3855	38.4106
-36.8331	538.226	38.479
-36.8274	534.818	38.5474
-36.82346	531.894	38.6157
-36.8162	531.825	38.6841
-36.8107	534.677	38.7524
-36.8061	533.325	38.8208
-36.7989	537.857	38.88916
-36.794	539.9577	38.95752
-36.7884	539.16	39.0259
-36.7824	538.7774	39.0942
-36.777	539.9801	39.1626
-36.7713	534.39	39.231
-36.7654	530.226	39.2993
-36.7588	532.594	39.3677
-36.7531	534.4292	39.436
-36.7489	532.667	39.5044
-36.7425	534.613	39.5728
-36.7367	538.947	39.6411
-36.7307	539.928	39.7095
-36.7257	539.979	39.7778
-36.7195	540.974	39.8462
-36.7141	536.033	39.9146
-36.7089	531.715	39.98291
-36.7058	537.227	40.0122

Data Header:			0.254_solid_dimension_typeiv_4545_r0			Time:	45.0178	s	4/13/2019 8:44:55 PM
Data Acquisition:	Timed
Station Name:	ft40.cfg
Test File Name:	monotonic_0.2540_typeiv_solid_4545_dimension.tst
Displacement	Force	Running Time
mm	N	s
-36.7048	537.295	40.022
-36.7031	536.044	40.0415
-36.7022	532.2099	40.061
-36.6994	539.017	40.0806
-36.6987	535.165	40.1001
-36.697	532.658	40.1196
-36.6965	537.675	40.13916
-36.6943	536.7702	40.1587
-36.6912	531.455	40.1782
-36.6903	534.478	40.1978
-36.6892	536.5918	40.2173
-36.6871	534.283	40.2368
-36.6858	533.6908	40.2563
-36.6836	537.152	40.2759
-36.6823	534.6272	40.29541
-36.68092	531.475	40.3149
-36.6801	536.881	40.3345
-36.67728	533.767	40.354
-36.6759	532.226	40.3735
-36.6741	536.544	40.3931
-36.6728	538.892	40.4126
-36.671	528.701	40.4321
-36.6692	537.128	40.45166
-36.6682	535.896	40.4712
-36.6659	533.479	40.4907
-36.6639	534.7926	40.5103
-36.6636	538.103	40.5298
-36.6614	528.82	40.5493
-36.6599	535.444	40.5688
-36.6576	537.097	40.5884
-36.6568	532.327	40.60791
-36.65498	532.049	40.6274
-36.6531	538.209	40.647
-36.6526	530.965	40.6665
-36.6502	531.333	40.686
-36.6481	534.908	40.7056
-36.6462	534.144	40.7251
-36.6457	530.747	40.7446
-36.6426	534.959	40.76416
-36.6421	534.2998	40.7837
-36.6397	531.621	40.8032
-36.6386	533.9762	40.8228
-36.63747	536.563	40.8423
-36.6345	532.034	40.8618
-36.63353	531.04	40.8813
-36.63237	537.474	40.9009
-36.6294	532.463	40.92041
-36.62886	531.5083	40.9399
-36.6268	536.294	40.9595
-36.6254	534.596	40.979
-36.6237	529.4035	40.9985
-36.6224	536.129	41.0181
-36.6201	534.103	41.0376
-36.6188	529.792	41.0571
-36.6179	534.573	41.07666
-36.6154	538.808	41.0962
-36.614	528.005	41.1157
-36.6122	533.201	41.1353
-36.6106	534.834	41.1548
-36.6095	531.969	41.1743
-36.6075	533.075	41.1938
-36.6058	538.074	41.2134
-36.60384	528.7428	41.23291
-36.6028	534.782	41.2524
-36.6013	536.115	41.272
-36.5981	532.2981	41.2915
-36.5977	529.829	41.311
-36.5966	535.167	41.3306
-36.5934	531.7937	41.3501
-36.5924	530.382	41.3696
-36.591	532.902	41.38916
-36.58886	535.497	41.4087
-36.5882	529.894	41.4282
-36.5857	533.53	41.4478
-36.5858	532.769	41.4673
-36.5826	530.933	41.4868
-36.5817	530.413	41.5063
-36.5795	535.486	41.5259
-36.577	533.412	41.54541
-36.5768	527.499	41.5649
-36.5736	533.168	41.5845
-36.5724	532.748	41.604
-36.5709	530.802	41.6235
-36.5698	533.1311	41.6431
-36.5689	534.166	41.6626
-36.567	526.565	41.6821
-36.5649	532.831	41.70166
-36.5638	533.7619	41.7212
-36.562	529.144	41.7407
-36.5603	531.34	41.7603
-36.5583	536.273	41.7798
-36.5576	526.475	41.7993
-36.55542	531.214	41.8188
-36.5536	533.473	41.8384
-36.5529	529.913	41.85791
-36.5507	528.56	41.8774
-36.54776	536.0329	41.897
-36.54752	527.3288	41.9165
-36.5452	529.146	41.936
-36.54332	532.316	41.9556
-36.54253	532.771	41.9751
-36.5399	527.217	41.9946
-36.5392	530.974	42.01416
-36.5375	529.442	42.0337
-36.5363	528.405	42.0532
-36.5342	529.881	42.0728
-36.532	530.877	42.0923
-36.5301	526.955	42.1118
-36.5295	526.541	42.1313
-36.5279	530.549	42.1509
-36.5249	526.127	42.17041
-36.5238	524.048	42.1899
-36.5231	530.338	42.2095
-36.52026	528.554	42.229
-36.5192	522.322	42.2485
-36.5181	528.724	42.2681
-36.5166	526.73	42.2876
-36.51487	521.499	42.3071
-36.5126	524.57	42.32666
-36.5117	526.731	42.3462
-36.5097	516.752	42.3657
-36.5078	522.94	42.3853
-36.50737	524.827	42.4048
-36.504	518.876	42.4243
-36.5028	516.323	42.4438
-36.5018	521.722	42.4634
-36.4997	511.33	42.48291
-36.4931	-102.0253	42.5024
-36.4949	-29.3789	42.522
-36.4939	-44.5185	42.5415
-36.49044	-44.2488	42.561
-36.491	-37.3631	42.5806
-36.4886	-44.2191	42.6001
-36.487	-45.8678	42.6196
-36.4864	-43.7348	42.63916
-36.4852	-38.8369	42.6587
-36.4821	-44.7992	42.6782
-36.4818	-41.9223	42.6978
-36.4805	-42.9258	42.7173
-36.478	-43.7936	42.7368
-36.4761	-44.1152	42.7563
-36.4745	-39.6284	42.7759
-36.4736	-43.6878	42.79541
-36.4718	-46.777	42.8149
-36.4703	-40.7098	42.8345
-36.4682	-41.6053	42.854
-36.4676	-47.1838	42.8735
-36.465	-41.642	42.8931
-36.4637	-40.3116	42.9126
-36.4613	-45.9873	42.9321
-36.4614	-41.5835	42.95166
-36.4588	-41.8598	42.9712
-36.4569	-46.4636	42.9907
-36.4562	-44.0933	43.0103
-36.4537	-37.7623	43.0298
-36.4528	-47.5818	43.0493
-36.4512	-44.843	43.0688
-36.4485	-39.5841	43.0884
-36.4489	-42.3667	43.10791
-36.4463	-45.5007	43.1274
-36.445	-38.8511	43.147
-36.4427	-46.4736	43.1665
-36.4407	-44.79615	43.186
-36.4399	-40.7259	43.2056
-36.438	-42.4214	43.2251
-36.4365	-45.3055	43.2446
-36.4351	-40.70507	43.26416
-36.4323	-41.8776	43.2837
-36.4302	-44.4371	43.3032
-36.4292	-44.8365	43.3228
-36.4292	-39.7255	43.3423
-36.4265	-45.0683	43.3618
-36.4247	-44.602	43.3813
-36.4248	-42.8372	43.4009
-36.4221	-43.5188	43.42041
-36.41988	-46.0753	43.4399
-36.42	-39.4953	43.4595
-36.4168	-42.6647	43.479
-36.415	-48.8073	43.4985
-36.4133	-42.334	43.5181
-36.4128	-40.3623	43.5376
-36.4108	-45.2305	43.5571
-36.4081	-42.0185	43.57666
-36.4075	-39.1892	43.5962
-36.4058	-47.3456	43.6157
-36.403	-43.1454	43.6353
-36.4016	-40.4784	43.6548
-36.4001	-46.7517	43.6743
-36.39772	-45.7878	43.6938
-36.3969	-37.45887	43.7134
-36.3948	-45.6737	43.73291
-36.3939	-45.3159	43.7524
-36.3922	-40.5425	43.772
-36.3906	-42.1482	43.7915
-36.3891	-45.3514	43.811
-36.38784	-38.979	43.8306
-36.3853	-44.6569	43.8501
-36.3839	-43.7819	43.8696
-36.3833	-42.9098	43.88916
-36.3815	-38.2421	43.9087
-36.3796	-46.3117	43.9282
-36.3784	-42.387	43.9478
-36.37566	-41.783	43.9673
-36.3754	-42.5987	43.9868
-36.3725	-44.6802	44.0063
-36.37048	-40.4719	44.0259
-36.3702	-42.433	44.04541
-36.36842	-43.8113	44.0649
-36.3661	-41.7462	44.0845
-36.3647	-42.6204	44.104
-36.3631	-46.3173	44.1235
-36.36166	-40.4896	44.1431
-36.3605	-40.0453	44.1626
-36.3581	-47.1418	44.1821
-36.3572	-44.4793	44.20166
-36.3548	-39.5793	44.2212
-36.3538	-45.8095	44.2407
-36.352	-43.3527	44.2603
-36.3503	-38.4802	44.2798
-36.3488	-46.7059	44.2993
-36.3463	-43.75906	44.3188
-36.3455	-38.7976	44.3384
-36.3435	-43.9329	44.35791
-36.3416	-47.9299	44.3774
-36.3408	-38.82135	44.397
-36.3385	-44.8106	44.4165
-36.337	-45.631	44.436
-36.3355	-42.65815	44.4556
-36.3347	-41.2086	44.4751
-36.3327	-45.1435	44.4946
-36.3303	-41.0257	44.51416
-36.3279	-43.7708	44.5337
-36.32748	-45.1587	44.5532
-36.3254	-44.4905	44.5728
-36.3243	-37.2953	44.5923
-36.3226	-44.8172	44.6118
-36.3211	-44.6031	44.6313
-36.3198	-42.7842	44.6509
-36.3173	-42.2818	44.67041
-36.3165	-47.7472	44.6899
-36.3146	-41.4734	44.7095
-36.3118	-43.7366	44.729
-36.3114	-47.37989	44.7485
-36.3098	-42.25473	44.7681
-36.3087	-41.6693	44.7876
-36.3061	-48.1869	44.8071
-36.30479	-44.2775	44.82666
-36.3032	-39.1038	44.8462
-36.3017	-46.5248	44.8657
-36.2992	-45.2527	44.8853
-36.2974	-41.0187	44.9048
-36.2961	-45.5807	44.9243
-36.2954	-45.6613	44.9438
-36.2928	-38.0872	44.9634
-36.29208	-45.7562	44.98291
-36.2901	-45.7215	45.0024
-36.2895	-42.6051	45.0122