File: data/processed_data_files/tensile/0.254_solid_uprint_typeiv_090_r(8).dat
MTS793|BTW|ENU|1|2|.|/|:|1|0|0|A

Data Header:			0.254_solid_uprint_typeiv_090_r0			Time:	20.019	s	4/14/2019 1:17:22 AM
Data Acquisition:	Timed
Station Name:	ft40.cfg
Test File Name:	monotonic_0.2540_typeiv_solid_090_uprint.tst
Displacement	Force	Running Time
mm	N	s
-40.0408	-149.5399	0.0227051
-40.0407	-151.723	0.0910645
-40.036	-148.19	0.159424
-40.0292	-140.798	0.2277832
-40.0248	-137.307	0.296143
-40.0176	-135.855	0.364502
-40.0127	-131.883	0.432861
-40.0061	-129.893	0.5012207
-40.0005	-129.119	0.56958
-39.9956	-124.576	0.637939
-39.9894	-119.532	0.706299
-39.9834	-117.701	0.7746582
-39.9776	-113.262	0.843018
-39.9719	-102.9057	0.911377
-39.9652	-99.3135	0.979736
-39.9612	-98.2158	1.0481
-39.9559	-93.5406	1.11646
-39.9485	-93.6157	1.18481
-39.943	-91.47551	1.25317
-39.93729	-88.4666	1.32153
-39.9322	-83.2786	1.38989
-39.9262	-83.5642	1.458252
-39.92046	-77.8598	1.52661
-39.9154	-67.5523	1.59497
-39.9095	-64.391	1.66333
-39.9034	-61.8909	1.73169
-39.8985	-57.7695	1.80005
-39.8929	-56.132	1.86841
-39.887	-55.2151	1.93677
-39.8814	-52.6824	2.005127
-39.875	-49.006	2.07349
-39.8689	-49.98349	2.14185
-39.8632	-43.70686	2.21021
-39.8579	-32.79	2.27856
-39.8518	-32.7676	2.34692
-39.8465	-27.5266	2.41528
-39.8408	-22.322	2.48364
-39.834	-22.7925	2.552002
-39.8292	-20.5735	2.62036
-39.8238	-16.98774	2.68872
-39.8179	-15.2146	2.75708
-39.8125	-16.4161	2.82544
-39.8064	-8.55525	2.8938
-39.8018	-2.88554	2.96216
-39.7954	1.51399	3.03052
-39.7887	8.80713	3.098877
-39.7844	13.1522	3.16724
-39.7779	14.806	3.2356
-39.7731	15.68158	3.30396
-39.7672	18.0423	3.37231
-39.7615	17.8667	3.44067
-39.75481	20.9876	3.50903
-39.7501	26.0939	3.57739
-39.7453	32.6429	3.645752
-39.738	35.25613	3.71411
-39.7326	41.7636	3.78247
-39.72736	46.4494	3.85083
-39.7214	51.847	3.91919
-39.7161	51.7022	3.98755
-39.7095	54.92384	4.05591
-39.7047	53.6579	4.12427
-39.6994	56.1595	4.192627
-39.6938	61.2252	4.26099
-39.6867	65.31636	4.32935
-39.6821	69.8087	4.39771
-39.6757	75.1859	4.46606
-39.6702	78.8053	4.53442
-39.6644	85.67572	4.60278
-39.6591	88.7935	4.67114
-39.6529	89.1947	4.739502
-39.6493	89.5469	4.80786
-39.6407	90.0897	4.87622
-39.6357	95.1814	4.94458
-39.62949	99.6782	5.01294
-39.6251	101.658	5.0813
-39.6199	108.601	5.14966
-39.6143	111.629	5.21802
-39.6068	119.013	5.286377
-39.6022	122.892	5.35474
-39.5959	125.118	5.4231
-39.5904	123.528	5.49146
-39.5846	126.542	5.55981
-39.5789	130.671	5.62817
-39.5734	132.3114	5.69653
-39.5668	136.844	5.76489
-39.5621	140.326	5.833252
-39.5569	143.64	5.90161
-39.5511	151.12	5.96997
-39.5446	156.385	6.03833
-39.5391	155.752	6.10669
-39.5347	157.312	6.17505
-39.5274	163.438	6.24341
-39.522	164.43	6.31177
-39.5171	165.334	6.380127
-39.5111	170.52	6.44849
-39.5057	171.173	6.51685
-39.49876	178.043	6.58521
-39.4934	182.963	6.65356
-39.4886	188.613	6.72192
-39.48262	190.077	6.79028
-39.47633	191.751	6.85864
-39.4715	198.443	6.927002
-39.4656	198.317	6.99536
-39.4591	199.29	7.06372
-39.45322	202.843	7.13208
-39.448	206.111	7.20044
-39.4426	208.966	7.2688
-39.4374	216.538	7.33716
-39.4301	220.869	7.40552
-39.4251	220.235	7.473877
-39.4197	225.233	7.54224
-39.414	232.36	7.6106
-39.40797	233.123	7.67896
-39.4029	231.285	7.74731
-39.3971	236.413	7.81567
-39.3912	234.864	7.88403
-39.3859	240.405	7.95239
-39.3803	245.864	8.020752
-39.3736	250.249	8.08911
-39.3694	251.632	8.15747
-39.3628	255.786	8.22583
-39.35709	263.922	8.29419
-39.35149	264.734	8.36255
-39.3458	263.968	8.43091
-39.3399	268.275	8.49927
-39.33419	267.735	8.567627
-39.3293	271.365	8.63599
-39.3237	274.464	8.70435
-39.3157	278.428	8.77271
-39.31192	280.134	8.84106
-39.3059	286.6954	8.90942
-39.2988	295.064	8.97778
-39.2938	294.768	9.04614
-39.2891	296.878	9.114502
-39.2827	299.515	9.18286
-39.2773	298.219	9.25122
-39.2714	299.365	9.31958
-39.26635	304.529	9.38794
-39.2599	305.495	9.4563
-39.2535	309.334	9.52466
-39.2481	315.402	9.59302
-39.2436	323.81	9.661377
-39.2378	322.191	9.72974
-39.2312	326.134	9.7981
-39.2259	330.228	9.86646
-39.2201	329.38	9.93481
-39.2145	329.227	10.0032
-39.2085	333.539	10.0715
-39.2042	334.339	10.1399
-39.19743	335.551	10.2083
-39.1924	344.837	10.2766
-39.1866	349.683	10.345
-39.18119	352.004	10.41333
-39.1751	354.744	10.4817
-39.16909	357.542	10.55
-39.1631	356.816	10.6184
-39.1581	358.374	10.6868
-39.1524	360.34	10.7551
-39.1466	359.194	10.8235
-39.1405	362.192	10.8918
-39.1349	368.315	10.9602
-39.1292	372.585	11.0286
-39.1244	376.714	11.0969
-39.1182	381.001	11.1653
-39.1122	380.853	11.2336
-39.107	383.384	11.302
-39.1009	383.617	11.3704
-39.0935	385.523	11.4387
-39.0895	384.326	11.50708
-39.0832	385.344	11.5754
-39.0778	390.854	11.6438
-39.0722	394.9491	11.7122
-39.0652	398.723	11.7805
-39.0597	401.1304	11.8489
-39.0555	404.257	11.9172
-39.05	406.062	11.9856
-39.04314	408.459	12.054
-39.038	406.149	12.1223
-39.0317	403.609	12.1907
-39.0268	407.51	12.259
-39.0202	410.96	12.3274
-39.0154	412.435	12.3958
-39.0087	416.652	12.4641
-39.0036	419.1781	12.5325
-38.99781	421.373	12.60083
-38.9933	425.564	12.6692
-38.9865	424.948	12.7375
-38.9819	422.406	12.8059
-38.9762	420.921	12.8743
-38.9708	423.164	12.9426
-38.9636	423.475	13.011
-38.95808	426.681	13.0793
-38.9528	428.613	13.1477
-38.9468	432.862	13.2161
-38.9419	435.878	13.2844
-38.93541	438.253	13.3528
-38.9303	438.938	13.4211
-38.9241	435.728	13.4895
-38.9186	433.285	13.5579
-38.9119	436.821	13.6262
-38.9077	434.823	13.69458
-38.9007	434.264	13.7629
-38.895	437.372	13.8313
-38.8886	439.9361	13.8997
-38.8841	441.447	13.968
-38.8789	445.19	14.0364
-38.8723	446.561	14.1047
-38.8672	440.735	14.1731
-38.8606	441.813	14.2415
-38.85537	445.835	14.3098
-38.8496	442.239	14.3782
-38.845	438.832	14.4465
-38.838	442.66	14.5149
-38.8339	441.868	14.5833
-38.82724	444.254	14.6516
-38.8207	447.756	14.72
-38.8153	448.667	14.78833
-38.8106	445.52	14.8567
-38.8041	446.884	14.925
-38.7992	447.9827	14.9934
-38.7938	441.416	15.0618
-38.788	442.003	15.1301
-38.7806	443.6937	15.1985
-38.776	442.19	15.2668
-38.7703	443.808	15.3352
-38.7644	449.1691	15.4036
-38.7597	448.008	15.4719
-38.7542	444.405	15.5403
-38.7483	446.673	15.6086
-38.7416	447.88	15.677
-38.73687	443.925	15.7454
-38.7302	442.59	15.8137
-38.7247	441.374	15.88208
-38.71896	441.441	15.9504
-38.7131	440.91	16.0188
-38.70789	443.926	16.0872
-38.7023	443.672	16.1555
-38.6969	442.593	16.2239
-38.6913	445.175	16.2922
-38.6844	447.246	16.3606
-38.6786	443.208	16.429
-38.6722	441.762	16.4973
-38.6673	439.648	16.5657
-38.6619	437.862	16.634
-38.6569	438.419	16.7024
-38.6511	441.115	16.7708
-38.6452	438.989	16.8391
-38.6393	440.014	16.9075
-38.6342	442.744	16.97583
-38.6279	442.935	17.0442
-38.6217	440.54	17.1125
-38.6169	439.521	17.1809
-38.6109	438.092	17.2493
-38.6051	437.43	17.3176
-38.5991	435.6012	17.386
-38.5938	434.893	17.4543
-38.58812	433.723	17.5227
-38.5824	435.661	17.5911
-38.5758	440.107	17.6594
-38.5704	440.5556	17.7278
-38.5645	440.125	17.7961
-38.5597	439.047	17.8645
-38.5533	435.301	17.9329
-38.5474	434.234	18.0012
-38.54163	432.711	18.06958
-38.5375	432.567	18.1379
-38.5322	431.111	18.2063
-38.526	434.028	18.2747
-38.5217	438.042	18.343
-38.5133	438.691	18.4114
-38.5079	439.0199	18.4797
-38.5035	438.265	18.5481
-38.4973	434.33	18.6165
-38.4915	435.205	18.6848
-38.4843	432.627	18.7532
-38.4803	428.761	18.8215
-38.4751	426.313	18.8899
-38.4679	431.549	18.9583
-38.4624	433.824	19.0266
-38.45694	433.675	19.095
-38.4512	438.282	19.16333
-38.4458	437.995	19.2317
-38.4396	433.923	19.3
-38.4339	432.881	19.3684
-38.42915	431.547	19.4368
-38.4223	427.092	19.5051
-38.4169	426.932	19.5735
-38.4123	431.653	19.6418
-38.4057	431.901	19.7102
-38.4001	432.517	19.7786
-38.3942	435.604	19.8469
-38.38868	435.952	19.9153
-38.3842	433.9173	19.9836
-38.38	427.589	20.0129

Data Header:			0.254_solid_uprint_typeiv_090_r0			Time:	27.6736	s	4/14/2019 1:17:30 AM
Data Acquisition:	Timed
Station Name:	ft40.cfg
Test File Name:	monotonic_0.2540_typeiv_solid_090_uprint.tst
Displacement	Force	Running Time
mm	N	s
-38.3803	427.187	20.0227
-38.3779	434.514	20.052
-38.37434	430.417	20.0813
-38.3726	434.931	20.1106
-38.3687	424.63	20.1399
-38.3674	437.047	20.1692
-38.3635	429.68	20.1985
-38.3633	434.834	20.2278
-38.3603	426.086	20.25708
-38.3581	435.981	20.2864
-38.3554	427.724	20.3157
-38.3531	432.73	20.345
-38.3506	428.142	20.3743
-38.3476	431.8222	20.4036
-38.3461	429.521	20.4329
-38.3426	428.926	20.4622
-38.3397	430.07	20.4915
-38.3383	428.733	20.5208
-38.3362	433.346	20.55
-38.3331	429.507	20.5793
-38.3321	434.741	20.6086
-38.328	424.618	20.6379
-38.3258	433.612	20.6672
-38.323	425.896	20.6965
-38.3206	435.821	20.72583
-38.3181	425.534	20.7551
-38.31535	433.743	20.7844
-38.3146	428.649	20.8137
-38.3121	431.901	20.843
-38.3085	426.374	20.8723
-38.3056	429.701	20.9016
-38.3035	433.167	20.9309
-38.302	431.063	20.9602
-38.2982	428.9	20.9895
-38.2977	428.419	21.0188
-38.293	434.775	21.0481
-38.29221	426.321	21.0774
-38.2901	431.5386	21.1067
-38.2865	427.121	21.136
-38.2849	434.447	21.1653
-38.2822	426.967	21.19458
-38.2796	431.201	21.2239
-38.2776	428.408	21.2532
-38.27417	432.582	21.2825
-38.2723	428.938	21.3118
-38.27	430.002	21.3411
-38.2681	431.313	21.3704
-38.2647	428.085	21.3997
-38.2628	430.045	21.429
-38.2598	426.452	21.4583
-38.2572	432.482	21.4875
-38.2553	425.8194	21.5168
-38.2528	433.38	21.5461
-38.2492	427.456	21.5754
-38.2478	431.191	21.6047
-38.24535	425.401	21.634
-38.2429	433.34	21.66333
-38.2407	427.583	21.6926
-38.23777	430.49	21.7219
-38.2354	427.182	21.7512
-38.2328	431.406	21.7805
-38.2311	429.216	21.8098
-38.2284	427.728	21.8391
-38.2256	431.428	21.8684
-38.2236	430.61	21.8977
-38.2205	431.786	21.927
-38.21833	423.553	21.9563
-38.2168	433.741	21.9856
-38.2125	427.019	22.0149
-38.2102	433.851	22.0442
-38.208	422.886	22.0735
-38.2064	433.996	22.1028
-38.2052	426.584	22.13208
-38.2013	431.071	22.1614
-38.1992	424.001	22.1907
-38.1964	432.543	22.22
-38.1945	427.796	22.2493
-38.1918	430.079	22.2786
-38.1877	427.963	22.3079
-38.1865	427.854	22.3372
-38.18504	430.016	22.3665
-38.1809	426.084	22.3958
-38.1792	431.833	22.425
-38.1772	424.812	22.4543
-38.1746	430.849	22.4836
-38.17123	424.625	22.5129
-38.16943	433.499	22.5422
-38.1672	424.522	22.5715
-38.1645	432.843	22.60083
-38.1622	426.506	22.6301
-38.1601	431.845	22.6594
-38.1584	423.671	22.6887
-38.1549	431.536	22.718
-38.1509	428.06	22.7473
-38.1491	431.258	22.7766
-38.1488	426.572	22.8059
-38.1449	426.148	22.8352
-38.1426	432.248	22.8645
-38.1402	425.821	22.8938
-38.13736	428.237	22.9231
-38.1359	426.532	22.9524
-38.1318	431.729	22.9817
-38.1303	423.152	23.011
-38.127	429.899	23.0403
-38.1255	425.061	23.06958
-38.1226	431.427	23.0989
-38.121	425.161	23.1282
-38.1187	429.116	23.1575
-38.1158	427.831	23.1868
-38.11412	428.462	23.2161
-38.1111	427.891	23.2454
-38.1084	426.111	23.2747
-38.1057	429.519	23.304
-38.1039	426.856	23.3333
-38.1005	430.921	23.3625
-38.0989	426.341	23.3918
-38.0958	429.258	23.4211
-38.0938	424.207	23.4504
-38.0908	432.2135	23.4797
-38.0893	426.876	23.509
-38.0869	430.178	23.53833
-38.0849	423.576	23.5676
-38.0813	431.717	23.5969
-38.0785	425.979	23.6262
-38.0764	426.859	23.6555
-38.0751	426.8808	23.6848
-38.0721	428.61	23.7141
-38.0699	428.118	23.7434
-38.0673	421.983	23.7727
-38.06509	428.932	23.802
-38.0617	424.497	23.8313
-38.0606	431.2	23.8606
-38.0574	422.234	23.8899
-38.0546	431.164	23.9192
-38.0525	422.951	23.9485
-38.0495	427.875	23.9778
-38.0474	419.557	24.00708
-38.0444	430.963	24.0364
-38.042	423.079	24.0657
-38.0403	427.999	24.095
-38.0386	423.35	24.1243
-38.0346	426.384	24.1536
-38.0335	423.143	24.1829
-38.0308	425.0007	24.2122
-38.0288	428.222	24.2415
-38.0251	423.8483	24.2708
-38.0233	427.36	24.3
-38.0207	419.851	24.3293
-38.0177	431.222	24.3586
-38.016	418.712	24.3879
-38.0127	429.762	24.4172
-38.011	422.8439	24.4465
-38.0086	430.71	24.47583
-38.0069	420.36	24.5051
-38.0038	427.245	24.5344
-38.0002	422.4903	24.5637
-37.9988	427.202	24.593
-37.9957	419.834	24.6223
-37.9944	425.6022	24.6516
-37.9913	423.719	24.6809
-37.9891	421.079	24.7102
-37.986	421.537	24.7395
-37.9835	421.458	24.7688
-37.9814	426.675	24.7981
-37.9797	419.062	24.8274
-37.97847	422.869	24.8567
-37.9743	418.481	24.886
-37.9721	425.0192	24.9153
-37.9705	416.849	24.94458
-37.9671	422.948	24.9739
-37.9656	420.271	25.0032
-37.96228	422.32	25.0325
-37.9609	418.369	25.0618
-37.9578	418.282	25.0911
-37.9555	419.536	25.1204
-37.9518	419.585	25.1497
-37.9505	418.69	25.179
-37.9471	415.956	25.2083
-37.9445	416.809	25.2375
-37.942	408.973	25.2668
-37.9407	412.139	25.2961
-37.9336	-9.312	25.3254
-37.93335	-37.9846	25.3547
-37.9321	-46.4004	25.384
-37.9303	-37.9327	25.41333
-37.9271	-45.1018	25.4426
-37.9246	-41.6445	25.4719
-37.9232	-43.8509	25.5012
-37.9203	-39.7063	25.5305
-37.9176	-42.046	25.5598
-37.9146	-46.2837	25.5891
-37.9127	-40.7136	25.6184
-37.9106	-43.6755	25.6477
-37.9073	-39.36937	25.677
-37.9063	-48.7727	25.7063
-37.9025	-38.4901	25.7356
-37.8998	-46.05378	25.7649
-37.8977	-39.4645	25.7942
-37.8966	-50.1831	25.8235
-37.8928	-38.52232	25.8528
-37.8916	-44.6566	25.88208
-37.88858	-39.5607	25.9114
-37.8859	-47.0263	25.9407
-37.8833	-39.8355	25.97
-37.8814	-44.5765	25.9993
-37.8795	-41.75861	26.0286
-37.8763	-40.4743	26.0579
-37.8734	-43.2988	26.0872
-37.8715	-41.9801	26.1165
-37.8688	-44.6483	26.1458
-37.8666	-39.2314	26.175
-37.8642	-46.6352	26.2043
-37.8614	-39.3673	26.2336
-37.8596	-44.7363	26.2629
-37.8575	-37.4678	26.2922
-37.8548	-47.6857	26.3215
-37.8515	-39.831	26.35083
-37.8497	-44.1945	26.3801
-37.8468	-39.1226	26.4094
-37.8454	-47.1325	26.4387
-37.8423	-39.5997	26.468
-37.8406	-42.4208	26.4973
-37.8373	-43.5589	26.5266
-37.8354	-45.5028	26.5559
-37.8326	-44.4511	26.5852
-37.8297	-38.7549	26.6145
-37.8288	-44.6549	26.6438
-37.8248	-41.4669	26.6731
-37.8228	-44.176	26.7024
-37.8202	-40.1137	26.7317
-37.81715	-47.8561	26.761
-37.8157	-39.903	26.7903
-37.81424	-43.5933	26.81958
-37.8102	-40.0941	26.8489
-37.8088	-45.9793	26.8782
-37.80624	-41.2025	26.9075
-37.8031	-44.0603	26.9368
-37.80106	-41.4033	26.9661
-37.7993	-41.0608	26.9954
-37.7951	-40.5849	27.0247
-37.793	-41.9968	27.054
-37.7922	-44.0499	27.0833
-37.78912	-40.1793	27.1125
-37.7862	-43.816	27.1418
-37.7839	-41.6743	27.1711
-37.7817	-43.8843	27.2004
-37.7784	-36.8167	27.2297
-37.7756	-45.1813	27.259
-37.7752	-42.556	27.28833
-37.771	-45.1341	27.3176
-37.7695	-38.6011	27.3469
-37.7666	-42.415	27.3762
-37.7644	-43.4821	27.4055
-37.7621	-42.5476	27.4348
-37.75983	-41.871	27.4641
-37.7558	-42.6727	27.4934
-37.75391	-46.9886	27.5227
-37.7523	-38.8711	27.552
-37.7503	-42.9689	27.5813
-37.7479	-39.9802	27.6106
-37.7454	-48.5883	27.6399
-37.7426	-37.8726	27.6692