File: data/processed_data_files/tensile/0.254_hd_dimension_typei_090_r(6).dat
MTS793|BTW|ENU|1|2|.|/|:|1|0|0|A

Data Header:			0.254_hd_dimension_typei_090_r0			Time:	20.0173	s	4/15/2019 3:43:47 PM
Data Acquisition:	Timed
Station Name:	ft40.cfg
Test File Name:	monotonic_0.2540_typei_hd_090_dimension.tst
Displacement	Force	Running Time
mm	N	s
9.97963	-140.789	0.0227051
9.980072	-139.7496	0.0910645
9.9872	-135.416	0.159424
9.99269	-129.089	0.2277832
9.99906	-122.89	0.296143
10.0041	-116.092	0.364502
10.0092	-115.995	0.432861
10.0155	-114.555	0.5012207
10.0217	-111.745	0.56958
10.0276	-109.178	0.637939
10.03322	-110.4726	0.706299
10.0386	-105.488	0.7746582
10.0432	-103.551	0.843018
10.0501	-97.762	0.911377
10.0554	-88.3078	0.979736
10.0603	-83.289	1.0481
10.0664	-82.2209	1.11646
10.07193	-78.3429	1.18481
10.0785	-73.51252	1.25317
10.0844	-73.9769	1.32153
10.0901	-73.6779	1.38989
10.09561	-69.6471	1.458252
10.0997	-67.9756	1.52661
10.1061	-65.1858	1.59497
10.1123	-56.4986	1.66333
10.11839	-48.43388	1.73169
10.1232	-46.00568	1.80005
10.129	-44.7978	1.86841
10.1361	-38.6879	1.93677
10.1411	-36.8042	2.005127
10.1459	-37.1703	2.07349
10.1522	-36.511	2.14185
10.1583	-32.1402	2.21021
10.1625	-32.9923	2.27856
10.1694	-26.6361	2.34692
10.1753	-18.3325	2.41528
10.1801	-14.53	2.48364
10.18575	-11.5729	2.552002
10.1915	-5.60939	2.62036
10.1982	-1.442024	2.68872
10.2029	-1.75113	2.75708
10.2094	-1.52169	2.82544
10.215	2.58698	2.8938
10.2199	4.17109	2.96216
10.2258	8.78799	3.03052
10.23227	16.163	3.098877
10.2376	20.4861	3.16724
10.2431	23.2609	3.2356
10.2483	31.063	3.30396
10.2546	36.3118	3.37231
10.26021	36.5591	3.44067
10.2666	38.7508	3.50903
10.2716	37.432	3.57739
10.2773	40.9785	3.645752
10.2837	44.1484	3.71411
10.28987	48.5661	3.78247
10.2952	51.97324	3.85083
10.2996	56.9953	3.91919
10.30585	65.0106	3.98755
10.3109	70.8404	4.05591
10.3171	71.9724	4.12427
10.3229	76.2686	4.192627
10.3293	77.1177	4.26099
10.3345	75.7306	4.32935
10.34092	80.4224	4.39771
10.3459	84.7456	4.46606
10.3525	86.2532	4.53442
10.3577	90.7231	4.60278
10.3633	99.5877	4.67114
10.3679	107.2361	4.739502
10.37474	108.163	4.80786
10.3808	112.881	4.87622
10.386	116.231	4.94458
10.3912	111.987	5.01294
10.3969	114.83	5.0813
10.403	120.457	5.14966
10.4075	120.154	5.21802
10.4147	123.966	5.286377
10.41954	134.185	5.35474
10.4256	140.944	5.4231
10.4313	141.418	5.49146
10.4371	147.553	5.55981
10.4423	152.631	5.62817
10.4484	150.279	5.69653
10.4537	151.211	5.76489
10.4603	155.254	5.833252
10.4649	156.496	5.90161
10.4715	156.457	5.96997
10.477	166.869	6.03833
10.4826	177.225	6.10669
10.48805	179.814	6.17505
10.4935	183.04	6.24341
10.499	190.116	6.31177
10.5045	189.459	6.380127
10.5103	190.057	6.44849
10.5171	192.076	6.51685
10.52286	192.627	6.58521
10.52827	192.899	6.65356
10.5337	200.138	6.72192
10.5406	208.008	6.79028
10.5455	212.488	6.85864
10.5498	217.61	6.927002
10.5562	223.261	6.99536
10.5631	224.416	7.06372
10.5675	227.639	7.13208
10.573	228.579	7.20044
10.5794	226.51	7.2688
10.58525	229.0914	7.33716
10.5912	235.855	7.40552
10.5967	240.947	7.473877
10.6024	246.176	7.54224
10.608	252.897	7.6106
10.6135	257.432	7.67896
10.6193	259.292	7.74731
10.6251	262.868	7.81567
10.6308	265.049	7.88403
10.6358	263.513	7.95239
10.6419	261.182	8.020752
10.6477	267.093	8.08911
10.6536	273.781	8.15747
10.6582	279.166	8.22583
10.6651	286.348	8.29419
10.6697	293.028	8.36255
10.677	294.69	8.43091
10.6815	299.903	8.49927
10.6882	303.0881	8.567627
10.69283	300.3624	8.63599
10.6995	297.92	8.70435
10.7044	300.969	8.77271
10.7111	307.881	8.84106
10.7161	310.512	8.90942
10.7217	316.555	8.97778
10.7277	324.428	9.04614
10.7337	327.219	9.114502
10.7385	334.252	9.18286
10.7451	337.868	9.25122
10.7504	336.527	9.31958
10.756	332.216	9.38794
10.7606	336.156	9.4563
10.7665	342.239	9.52466
10.7732	341.785	9.59302
10.7788	346.9314	9.661377
10.784	356.426	9.72974
10.7903	359.91	9.7981
10.7948	366.086	9.86646
10.8013	372.33	9.93481
10.807	371.883	10.0032
10.813	369.699	10.0715
10.8183	370.593	10.1399
10.8233	375.683	10.2083
10.8299	376.4765	10.2766
10.8359	379.01	10.345
10.84104	386.969	10.41333
10.8467	394.304	10.4817
10.8528	400.008	10.55
10.8583	406.94	10.6184
10.8642	408.721	10.6868
10.8694	405.8324	10.7551
10.87544	406.58	10.8235
10.8812	409.812	10.8918
10.8865	408.699	10.9602
10.8916	412.691	11.0286
10.8988	419.314	11.0969
10.9041	422.616	11.1653
10.91	431.514	11.2336
10.9155	436.629	11.302
10.9211	441.02	11.3704
10.9264	439.325	11.4387
10.9336	441.6033	11.50708
10.939	442.978	11.5754
10.9435	440.568	11.6438
10.9493	446.101	11.7122
10.9543	449.942	11.7805
10.9609	452.843	11.8489
10.9667	461.897	11.9172
10.97175	469.608	11.9856
10.9785	472.708	12.054
10.9846	472.769	12.1223
10.9895	476.003	12.1907
10.99568	479.2608	12.259
10.99976	476.255	12.3274
11.0068	478.323	12.3958
11.013	481.5694	12.4641
11.01696	483.918	12.5325
11.0237	490.55	12.60083
11.0299	499.07	12.6692
11.0349	505.223	12.7375
11.0416	504.325	12.8059
11.0459	508.821	12.8743
11.0515	512.763	12.9426
11.0574	509.1088	13.011
11.0638	509.984	13.0793
11.0692	514.495	13.1477
11.0739	514.924	13.2161
11.0805	520.8667	13.2844
11.0856	527.463	13.3528
11.0925	535.52	13.4211
11.0979	537.597	13.4895
11.1036	538.648	13.5579
11.10923	545.453	13.6262
11.1137	545.537	13.69458
11.1209	542.281	13.7629
11.1264	544.931	13.8313
11.1318	546.572	13.8997
11.1371	550.54	13.968
11.1437	555.591	14.0364
11.1484	564.016	14.1047
11.1543	566.583	14.1731
11.1607	569.7052	14.2415
11.16604	576.03	14.3098
11.1715	576.769	14.3782
11.1776	576.565	14.4465
11.1833	576.644	14.5149
11.18973	575.458	14.5833
11.1946	578.7818	14.6516
11.2004	586.28	14.72
11.2058	590.449	14.78833
11.2116	594.343	14.8567
11.2166	598.943	14.925
11.2232	608.022	14.9934
11.2291	608.304	15.0618
11.2336	608.943	15.1301
11.241	609.863	15.1985
11.2463	607.968	15.2668
11.2514	609.813	15.3352
11.257	614.436	15.4036
11.2631	618.746	15.4719
11.26901	622.644	15.5403
11.2749	628.569	15.6086
11.2795	636.883	15.677
11.286	638.076	15.7454
11.2906	639.237	15.8137
11.2981	640.6377	15.88208
11.3034	640.065	15.9504
11.3079	639.548	16.0188
11.3139	643.195	16.0872
11.3192	647.357	16.1555
11.3256	648.6	16.2239
11.3308	654.219	16.2922
11.3375	663.374	16.3606
11.3424	666.586	16.429
11.3484	667.947	16.4973
11.3534	672.512	16.5657
11.35843	670.343	16.634
11.36574	669.12	16.7024
11.371	670.791	16.7708
11.3764	673.713	16.8391
11.3826	674.634	16.9075
11.3868	679.327	16.97583
11.3943	689.531	17.0442
11.39992	694.007	17.1125
11.4058	695.416	17.1809
11.4097	697.863	17.2493
11.4174	700.733	17.3176
11.4215	698.201	17.386
11.4277	699.475	17.4543
11.4334	701.251	17.5227
11.4403	700.91	17.5911
11.444	702.646	17.6594
11.4502	712.429	17.7278
11.4561	719.162	17.7961
11.4621	721.554	17.8645
11.4683	726.0882	17.9329
11.4743	725.76	18.0012
11.4789	726.73	18.06958
11.4847	726.302	18.1379
11.4908	724.671	18.2063
11.4961	724.793	18.2747
11.5017	726.742	18.343
11.5081	734.744	18.4114
11.5139	741.242	18.4797
11.5187	745.316	18.5481
11.5252	749.4118	18.6165
11.5312	753.896	18.6848
11.53646	752.927	18.7532
11.5419	754.6601	18.8215
11.5465	751.8551	18.8899
11.5532	749.327	18.9583
11.5586	752.333	19.0266
11.5649	757.267	19.095
11.5704	761.54	19.16333
11.5765	767.8606	19.2317
11.5822	775.914	19.3
11.587	778.542	19.3684
11.59419	777.026	19.4368
11.5992	779.215	19.5051
11.6037	777.771	19.5735
11.6106	773.612	19.6418
11.6167	772.518	19.7102
11.6214	779.456	19.7786
11.6275	781.909	19.8469
11.633	785.8584	19.9153
11.6389	791.881	19.9836
11.6414	789.707	20.0129

Data Header:			0.254_hd_dimension_typei_090_r0			Time:	40.0176	s	4/15/2019 3:44:07 PM
Data Acquisition:	Timed
Station Name:	ft40.cfg
Test File Name:	monotonic_0.2540_typei_hd_090_dimension.tst
Displacement	Force	Running Time
mm	N	s
11.64202	786.219	20.0227
11.64678	787.2738	20.0911
11.6525	788.844	20.1594
11.6591	793.693	20.2278
11.6635	800.92	20.2961
11.6704	803.274	20.3645
11.6761	806.21	20.4329
11.6821	809.023	20.5012
11.6872	804.936	20.56958
11.693	805.277	20.6379
11.6997	806.036	20.7063
11.7046	805.462	20.7747
11.71144	804.658	20.843
11.7156	810.739	20.9114
11.7213	818.277	20.9797
11.7282	819.765	21.0481
11.7333	826.203	21.1165
11.7389	827.817	21.1848
11.7455	826.0069	21.2532
11.7497	824.294	21.3215
11.7555	823.978	21.3899
11.761	821.683	21.4583
11.7689	819.325	21.5266
11.7736	823.2619	21.595
11.7783	831.143	21.66333
11.7843	832.17	21.7317
11.7903	835.708	21.8
11.79569	840.574	21.8684
11.8013	840.184	21.9368
11.8073	838.073	22.0051
11.8125	837.896	22.0735
11.8179	834.6	22.1418
11.8241	831.497	22.2102
11.8297	832.373	22.2786
11.8366	839.7713	22.3469
11.8411	841.999	22.4153
11.8468	843.437	22.4836
11.8524	849.0899	22.552
11.8586	849.291	22.6204
11.8638	848.93	22.6887
11.8712	848.935	22.75708
11.87525	845.658	22.8254
11.88102	840.154	22.8938
11.8864	839.641	22.9622
11.8926	844.905	23.0305
11.89834	847.6123	23.0989
11.9038	847.307	23.1672
11.9099	852.889	23.2356
11.916	854.289	23.304
11.9208	856.165	23.3723
11.9268	854.8158	23.4407
11.932	853.82	23.509
11.9374	845.857	23.5774
11.9441	844.791	23.6458
11.9498	847.104	23.7141
11.9554	849.573	23.7825
11.9598	849.8219	23.85083
11.9664	854.74	23.9192
11.9736	857.326	23.9875
11.9785	860.069	24.0559
11.9837	859.926	24.1243
11.9891	857.27	24.1926
11.99409	849.934	24.261
12.0003	848.187	24.3293
12.0067	849.409	24.3977
12.0115	847.5163	24.4661
12.0174	848.8736	24.5344
12.024	853.982	24.6028
12.0293	855.806	24.6711
12.035	858.217	24.7395
12.03997	860.785	24.8079
12.0461	857.5	24.8762
12.0518	851.94	24.94458
12.0578	850.292	25.0129
12.06376	849.916	25.0813
12.0693	847.1532	25.1497
12.0741	845.924	25.218
12.0799	849.6037	25.2864
12.0858	852.25	25.3547
12.0922	853.698	25.4231
12.09779	857.924	25.4915
12.103	858.126	25.5598
12.1098	851.224	25.6282
12.1144	847.71	25.6965
12.11946	848.604	25.7649
12.1267	843.843	25.8333
12.1313	840.931	25.9016
12.1379	844.5835	25.97
12.143	848.159	26.03833
12.149	849.906	26.1067
12.15483	854.552	26.175
12.1599	854.853	26.2434
12.1652	848.5769	26.3118
12.1712	847.06	26.3801
12.1772	847.1076	26.4485
12.1829	843.663	26.5168
12.1889	837.038	26.5852
12.1932	838.427	26.6536
12.2006	842.236	26.7219
12.206	844.418	26.7903
12.2117	847.972	26.8586
12.2172	849.6745	26.927
12.2229	847.597	26.9954
12.2283	844.212	27.0637
12.23472	845.736	27.13208
12.24	840.43	27.2004
12.2455	836.896	27.2688
12.25125	835.761	27.3372
12.2574	836.849	27.4055
12.2626	838.81	27.4739
12.2681	842.81	27.5422
12.2741	846.139	27.6106
12.2797	844.827	27.679
12.2851	845.423	27.7473
12.2919	844.07	27.8157
12.2965	841.239	27.884
12.3035	835.859	27.9524
12.3089	833.184	28.0208
12.3134	831.063	28.0891
12.3197	834.884	28.1575
12.3248	837.257	28.22583
12.3314	839.9826	28.2942
12.3376	839.497	28.3625
12.3423	842.547	28.4309
12.3479	843.932	28.4993
12.3542	839.622	28.5676
12.3591	834.815	28.636
12.3647	832.7016	28.7043
12.3715	831.186	28.7727
12.3764	831.498	28.8411
12.3826	833.2005	28.9094
12.3887	836.721	28.9778
12.3941	834.968	29.0461
12.3999	837.692	29.1145
12.4051	841.824	29.1829
12.4108	839.604	29.2512
12.4168	833.859	29.31958
12.421	831.364	29.3879
12.4288	828.762	29.4563
12.43387	827.275	29.5247
12.4397	828.078	29.593
12.4452	832.064	29.6614
12.4509	832.219	29.7297
12.4571	834.264	29.7981
12.4627	839.114	29.8665
12.4685	841.216	29.9348
12.4741	835.746	30.0032
12.4791	831.94	30.0715
12.4849	830.4212	30.1399
12.4894	827.307	30.2083
12.4954	827.633	30.2766
12.5019	829.953	30.345
12.5077	829.924	30.41333
12.5146	830.997	30.4817
12.5189	837.034	30.55
12.5263	839.232	30.6184
12.5297	835.565	30.6868
12.5362	833.115	30.7551
12.5428	830.544	30.8235
12.5478	827.789	30.8918
12.5535	828.175	30.9602
12.5597	825.793	31.0286
12.5645	826.35	31.0969
12.57021	827.851	31.1653
12.5764	833.941	31.2336
12.582	836.998	31.302
12.5883	837.188	31.3704
12.5933	835.088	31.4387
12.599	831.51	31.50708
12.6045	829.204	31.5754
12.6104	827.649	31.6438
12.6153	825.537	31.7122
12.6213	823.057	31.7805
12.627	825.43	31.8489
12.6333	833.4104	31.9172
12.6394	834.549	31.9856
12.6447	834.846	32.054
12.6501	836.289	32.1223
12.6561	834.736	32.1907
12.6617	829.956	32.259
12.667	829.815	32.3274
12.6733	827.562	32.3958
12.678	823.0224	32.4641
12.6848	822.353	32.5325
12.691	829.095	32.60083
12.6953	833.103	32.6692
12.70203	832.93	32.7375
12.70747	834.716	32.8059
12.7129	837.217	32.8743
12.7175	831.556	32.9426
12.72402	828.448	33.011
12.7308	828.0578	33.0793
12.7357	823.445	33.1477
12.7401	820.072	33.2161
12.747	826.928	33.2844
12.7524	831.198	33.3528
12.758	831.347	33.4211
12.7642	833.801	33.4895
12.7687	836.694	33.5579
12.7757	832.565	33.6262
12.7821	830.22	33.69458
12.78643	829.554	33.7629
12.7925	824.117	33.8313
12.7981	820.139	33.8997
12.8041	823.567	33.968
12.8093	828.58	34.0364
12.8153	828.287	34.1047
12.8213	830.3786	34.1731
12.8258	836.062	34.2415
12.8318	833.857	34.3098
12.838	833.8457	34.3782
12.8446	829.834	34.4465
12.85	824.186	34.5149
12.8547	820.073	34.5833
12.861	822.624	34.6516
12.8669	828.078	34.72
12.873	825.226	34.78833
12.8783	830.033	34.8567
12.884	833.005	34.925
12.8899	833.969	34.9934
12.8953	834.031	35.0618
12.9002	832.238	35.1301
12.9064	825.899	35.1985
12.912	821.064	35.2668
12.9181	823.318	35.3352
12.9236	822.649	35.4036
12.9285	823.073	35.4719
12.9341	827.57	35.5403
12.9407	830.771	35.6086
12.946	831.557	35.677
12.95216	833.98	35.7454
12.958	832.441	35.8137
12.9634	828.192	35.88208
12.969	824.555	35.9504
12.9752	823.832	36.0188
12.9809	824.458	36.0872
12.9863	822.831	36.1555
12.9929	824.416	36.2239
12.9979	829.853	36.2922
13.0039	829.9	36.3606
13.0091	833.4389	36.429
13.0148	834.529	36.4973
13.0203	832.174	36.5657
13.0255	824.707	36.634
13.0322	824.879	36.7024
13.0373	825.901	36.7708
13.0421	820.2865	36.8391
13.04909	823.826	36.9075
13.0544	828.21	36.97583
13.0597	828.579	37.0442
13.0659	832.641	37.1125
13.0721	834.95	37.1809
13.0765	832.1	37.2493
13.0839	827.851	37.3176
13.0885	825.721	37.386
13.095	825.207	37.4543
13.0992	820.482	37.5227
13.10507	821.124	37.5911
13.1125	824.683	37.6594
13.11787	827.832	37.7278
13.1233	828.66	37.7961
13.12854	835.0061	37.8645
13.1348	832.89	37.9329
13.1406	829.0719	38.0012
13.1457	828.191	38.06958
13.1515	825.501	38.1379
13.1578	821.836	38.2063
13.1627	819.961	38.2747
13.1686	821.769	38.343
13.1741	822.679	38.4114
13.1811	828.013	38.4797
13.1846	832.962	38.5481
13.1907	830.854	38.6165
13.1968	829.739	38.6848
13.2023	830.792	38.7532
13.2085	828.636	38.8215
13.2138	824.846	38.8899
13.2196	822.04	38.9583
13.2242	821.54	39.0266
13.2314	822.2226	39.095
13.2377	826.695	39.16333
13.2424	830.995	39.2317
13.2483	829.883	39.3
13.2538	829.695	39.3684
13.2586	830.538	39.4368
13.2654	829.968	39.5051
13.2705	823.794	39.5735
13.2766	822.618	39.6418
13.2823	820.759	39.7102
13.2882	818.589	39.7786
13.2939	821.722	39.8469
13.2995	827.843	39.9153
13.3058	828.5047	39.9836
13.3072	824.8006	40.0129

Data Header:			0.254_hd_dimension_typei_090_r0			Time:	45.5544	s	4/15/2019 3:44:12 PM
Data Acquisition:	Timed
Station Name:	ft40.cfg
Test File Name:	monotonic_0.2540_typei_hd_090_dimension.tst
Displacement	Force	Running Time
mm	N	s
13.3082	819.935	40.0227
13.3097	827.182	40.0422
13.3122	831.211	40.0618
13.31334	823.216	40.0813
13.3155	820.955	40.10083
13.3168	834.515	40.1204
13.3181	822.031	40.1399
13.3197	823.946	40.1594
13.3221	830.676	40.179
13.3229	828.211	40.1985
13.3252	818.994	40.218
13.32583	830.099	40.2375
13.3277	825.954	40.25708
13.3295	820.299	40.2766
13.3315	828.7832	40.2961
13.3328	831.162	40.3157
13.3338	817.1355	40.3352
13.3356	827.034	40.3547
13.33847	829.133	40.3743
13.33951	824.092	40.3938
13.3408	824.552	40.41333
13.3431	833.766	40.4329
13.3429	820.24	40.4524
13.34547	824.721	40.4719
13.3479	830.373	40.4915
13.3486	824.286	40.511
13.3507	821.29	40.5305
13.3531	830.996	40.55
13.3543	825.393	40.56958
13.3537	821.381	40.5891
13.3574	828.257	40.6086
13.3586	827.85	40.6282
13.36	821.883	40.6477
13.362	825.5343	40.6672
13.3633	829.3194	40.6868
13.366	820.585	40.7063
13.3675	825.146	40.72583
13.3694	831.385	40.7454
13.3704	824.503	40.7649
13.372	818.509	40.7844
13.37313	831.671	40.804
13.3762	824.315	40.8235
13.3763	821.61	40.843
13.3786	829.048	40.8625
13.3806	829.615	40.88208
13.3826	818.201	40.9016
13.3831	830.4986	40.9211
13.3848	828.205	40.9407
13.3862	820.253	40.9602
13.3876	826.994	40.9797
13.3902	833.703	40.9993
13.392	817.424	41.0188
13.393	825.728	41.03833
13.395	830.621	41.0579
13.39642	823.745	41.0774
13.3973	823.075	41.0969
13.3994	833.161	41.1165
13.4005	821.15	41.136
13.4024	822.097	41.1555
13.4055	829.522	41.175
13.407	827.773	41.19458
13.4082	818.479	41.2141
13.41	828.966	41.2336
13.4104	828.303	41.2532
13.412	820.866	41.2727
13.4142	825.008	41.2922
13.4154	828.8714	41.3118
13.4168	821.504	41.3313
13.4187	825.667	41.35083
13.42036	829.524	41.3704
13.42278	822.552	41.3899
13.4237	821.617	41.4094
13.426	829.772	41.429
13.4277	825.577	41.4485
13.4291	819.431	41.468
13.4307	828.084	41.4875
13.4309	826.682	41.50708
13.4345	820.44	41.5266
13.4348	828.039	41.5461
13.4367	828.758	41.5657
13.4387	816.722	41.5852
13.4391	827.823	41.6047
13.4422	830.402	41.6243
13.4428	820.809	41.6438
13.4454	823.902	41.66333
13.4476	832.056	41.6829
13.4485	820.449	41.7024
13.4515	824.223	41.7219
13.4512	828.567	41.7415
13.4526	824.1958	41.761
13.4547	820.933	41.7805
13.4566	830.004	41.8
13.4581	821.989	41.81958
13.4592	819.944	41.8391
13.4616	827.947	41.8586
13.4639	827.5011	41.8782
13.4642	819.906	41.8977
13.46624	825.718	41.9172
13.4679	827.797	41.9368
13.4696	822.497	41.9563
13.4712	821.546	41.97583
13.4737	830.23	41.9954
13.4742	821.131	42.0149
13.4754	822.585	42.0344
13.47765	830.358	42.054
13.4794	823.696	42.0735
13.4815	819.782	42.093
13.4835	828.773	42.1125
13.4843	828.5083	42.13208
13.4849	817.272	42.1516
13.4872	827.2254	42.1711
13.4897	826.397	42.1907
13.4912	819.506	42.2102
13.4926	825.792	42.2297
13.4939	830.723	42.2493
13.4937	817.201	42.2688
13.4978	823.614	42.28833
13.4992	831.409	42.3079
13.5008	822.459	42.3274
13.5013	819.669	42.3469
13.5048	831.887	42.3665
13.5049	821.631	42.386
13.5065	823.013	42.4055
13.5079	827.681	42.425
13.5106	825.462	42.44458
13.5116	819.817	42.4641
13.5131	827.566	42.4836
13.515	825.482	42.5032
13.5164	819.622	42.5227
13.5196	824.207	42.5422
13.5205	830.212	42.5618
13.52162	820.446	42.5813
13.5226	822.108	42.60083
13.5254	826.747	42.6204
13.527	821.824	42.6399
13.5293	821.033	42.6594
13.5293	829.096	42.679
13.5305	822.783	42.6985
13.5339	818.562	42.718
13.5345	827.566	42.7375
13.5369	826.982	42.75708
13.5377	817.189	42.7766
13.539	824.899	42.7961
13.54117	828.683	42.8157
13.5436	817.232	42.8352
13.5441	822.596	42.8547
13.5466	828.299	42.8743
13.5477	819.859	42.8938
13.5498	822.752	42.91333
13.5517	831.937	42.9329
13.5523	817.406	42.9524
13.5541	821.661	42.9719
13.556	828.028	42.9915
13.5575	823.365	43.011
13.5592	816.616	43.0305
13.56	829.959	43.05
13.5624	820.032	43.06958
13.5642	819.772	43.0891
13.566	824.391	43.1086
13.5675	825.009	43.1282
13.5701	815.7829	43.1477
13.5701	824.272	43.1672
13.5718	824.928	43.1868
13.5729	818.668	43.2063
13.57502	817.442	43.22583
13.5768	827.2182	43.2454
13.5785	819.797	43.2649
13.5798	820.819	43.2844
13.5821	824.231	43.304
13.5836	820.326	43.3235
13.5849	815.636	43.343
13.5878	825.461	43.3625
13.58803	823.239	43.38208
13.5896	813.704	43.4016
13.5921	819.622	43.4211
13.5926	823.051	43.4407
13.5948	812.911	43.4602
13.6068	-116.391	43.4797
13.6038	-44.8462	43.4993
13.6035	-43.3044	43.5188
13.60413	-45.069	43.53833
13.6033	-41.1609	43.5579
13.6052	-49.53154	43.5774
13.6071	-50.2202	43.5969
13.6093	-38.7718	43.6165
13.61047	-50.9075	43.636
13.6121	-50.6932	43.6555
13.6136	-42.73151	43.675
13.6146	-44.9794	43.69458
13.6174	-52.2721	43.7141
13.6181	-41.5791	43.7336
13.6207	-45.4236	43.7532
13.6204	-50.1715	43.7727
13.62359	-46.4809	43.7922
13.62441	-39.848	43.8118
13.6256	-51.9385	43.8313
13.6277	-46.462	43.85083
13.6299	-42.0967	43.8704
13.6308	-46.2137	43.8899
13.63281	-51.1782	43.9094
13.6347	-39.6987	43.929
13.6358	-45.7465	43.9485
13.6376	-50.9876	43.968
13.6398	-44.9047	43.9875
13.64104	-44.8289	44.00708
13.6423	-53.1028	44.0266
13.6444	-43.7166	44.0461
13.6456	-40.7988	44.0657
13.6467	-51.6627	44.0852
13.6493	-46.2601	44.1047
13.6507	-40.3864	44.1243
13.6527	-49.0966	44.1438
13.6537	-49.5442	44.16333
13.6563	-39.0752	44.1829
13.65757	-49.7523	44.2024
13.6582	-49.3544	44.2219
13.6602	-41.0916	44.2415
13.6615	-46.4765	44.261
13.664	-51.9239	44.2805
13.6653	-40.2785	44.3
13.66676	-47.0585	44.31958
13.6689	-50.4085	44.3391
13.67	-45.4864	44.3586
13.6729	-42.8235	44.3782
13.6735	-49.8436	44.3977
13.6748	-43.0768	44.4172
13.6771	-47.27779	44.4368
13.6779	-49.3639	44.4563
13.68047	-48.3602	44.47583
13.6821	-38.9676	44.4954
13.6826	-48.5786	44.5149
13.684	-48.3669	44.5344
13.6874	-43.9762	44.554
13.68753	-43.7776	44.5735
13.6893	-51.1362	44.593
13.6909	-42.5527	44.6125
13.6933	-45.5951	44.63208
13.6939	-50.7433	44.6516
13.6958	-44.9939	44.6711
13.69812	-41.3623	44.6907
13.6996	-52.9941	44.7102
13.7007	-46.7555	44.7297
13.7027	-39.9715	44.7493
13.7049	-50.2589	44.7688
13.7065	-50.521	44.78833
13.707	-40.9067	44.8079
13.7098	-49.1871	44.8274
13.7108	-50.0628	44.8469
13.7125	-39.7707	44.8665
13.7143	-49.0618	44.886
13.7156	-52.0243	44.9055
13.717	-42.6049	44.925
13.7185	-44.6054	44.94458
13.7209	-53.0624	44.9641
13.722	-42.9509	44.9836
13.7239	-44.976	45.0032
13.7253	-49.6507	45.0227
13.7281	-46.6103	45.0422
13.7278	-41.5113	45.0618
13.7306	-51.0756	45.0813
13.7318	-44.8629	45.10083
13.7326	-42.9569	45.1204
13.735	-47.05	45.1399
13.7367	-51.7112	45.1594
13.7385	-39.7169	45.179
13.7403	-46.4565	45.1985
13.7421	-50.2666	45.218
13.7431	-45.4586	45.2375
13.7448	-44.0057	45.25708
13.7466	-52.3168	45.2766
13.7469	-44.47131	45.2961
13.7497	-42.5247	45.3157
13.7523	-51.7465	45.3352
13.7532	-47.4088	45.3547
13.7549	-39.8058	45.3743
13.7564	-51.6264	45.3938
13.7581	-48.4012	45.41333
13.7601	-40.1056	45.4329
13.7608	-49.4668	45.4524
13.7631	-50.6549	45.4719
13.7642	-41.7713	45.4915
13.7665	-47.8145	45.511
13.7683	-51.83577	45.5305
13.7686	-39.7828	45.55