File: data/processed_data_files/tensile/0.254_solid_dimension_typeiv_090_r(5).dat
MTS793|BTW|ENU|1|2|.|/|:|1|0|0|A

Data Header:			0.254_solid_dimension_typeiv_090_r0			Time:	20.0266	s	4/14/2019 1:45:00 AM
Data Acquisition:	Timed
Station Name:	ft40.cfg
Test File Name:	monotonic_0.2540_typeiv_solid_090_dimension.tst
Displacement	Force	Running Time
mm	N	s
-40.0402	-126.694	0.0310059
-40.0411	-121.954	0.0993652
-40.03474	-121.146	0.167725
-40.028	-116.379	0.236084
-40.0212	-111.48	0.304443
-40.0164	-109.446	0.372803
-40.0108	-106.89	0.441162
-40.0049	-103.534	0.509521
-39.9998	-102.8676	0.577881
-39.9934	-102.658	0.64624
-39.9892	-96.6464	0.7146
-39.9822	-88.6469	0.782959
-39.9773	-83.3091	0.851318
-39.9712	-80.0469	0.919678
-39.9657	-73.494	0.988037
-39.9593	-74.0253	1.0564
-39.9544	-69.224	1.12476
-39.9482	-67.1357	1.19312
-39.9436	-65.127	1.26147
-39.9365	-66.7247	1.329834
-39.9323	-61.2262	1.39819
-39.9263	-52.72	1.46655
-39.9205	-49.9715	1.53491
-39.9146	-45.08585	1.60327
-39.9083	-39.1823	1.67163
-39.9023	-36.779	1.73999
-39.8967	-32.6336	1.80835
-39.8915	-29.905	1.876709
-39.88665	-28.5571	1.94507
-39.8793	-30.0492	2.01343
-39.8739	-26.7717	2.08179
-39.8694	-18.148	2.15015
-39.86322	-14.9275	2.21851
-39.8574	-8.661869	2.28687
-39.8515	-2.68192	2.35522
-39.8445	-0.875972	2.423584
-39.8391	4.37382	2.49194
-39.8361	6.77004	2.5603
-39.8286	8.67381	2.62866
-39.8231	8.35965	2.69702
-39.8182	11.0059	2.76538
-39.8113	16.4515	2.83374
-39.8072	22.06185	2.9021
-39.8005	27.2068	2.970459
-39.7959	30.8583	3.03882
-39.7884	35.5239	3.10718
-39.7831	41.54752	3.17554
-39.7784	44.2167	3.2439
-39.7716	43.7067	3.31226
-39.7646	45.5543	3.38062
-39.7603	49.531	3.44897
-39.7552	53.0816	3.517334
-39.74826	56.3015	3.58569
-39.7436	61.0516	3.65405
-39.7369	65.429	3.72241
-39.7312	70.7248	3.79077
-39.7262	78.155	3.85913
-39.7206	83.1241	3.92749
-39.7157	80.9952	3.99585
-39.7101	82.537	4.064209
-39.7039	87.58326	4.13257
-39.6981	90.7909	4.20093
-39.6932	92.3527	4.26929
-39.6853	98.3935	4.33765
-39.682	100.887	4.40601
-39.6764	106.102	4.47437
-39.6698	111.828	4.54272
-39.6639	119.496	4.611084
-39.6589	118.642	4.67944
-39.6528	118.5428	4.7478
-39.6467	125.452	4.81616
-39.6408	127.177	4.88452
-39.6342	127.424	4.95288
-39.6301	133.32	5.02124
-39.6241	137.601	5.0896
-39.6182	140.82	5.157959
-39.6128	147.803	5.22632
-39.6076	151.914	5.29468
-39.6005	153.016	5.36304
-39.5951	155.728	5.4314
-39.5904	161.216	5.49976
-39.5841	162.74	5.56812
-39.5793	163.234	5.63647
-39.573	165.629	5.704834
-39.5674	170.153	5.77319
-39.5622	172.709	5.84155
-39.5565	180.135	5.90991
-39.55056	184.984	5.97827
-39.544	187.431	6.04663
-39.5386	190.071	6.11499
-39.533	196.515	6.18335
-39.5277	199.702	6.251709
-39.5207	198.815	6.32007
-39.5164	200.683	6.38843
-39.5084	205.292	6.45679
-39.5055	207.102	6.52515
-39.4984	212.723	6.59351
-39.4932	218.364	6.66187
-39.4882	220.824	6.73022
-39.482	222.056	6.798584
-39.4759	232.086	6.86694
-39.4708	233.944	6.9353
-39.4638	233.165	7.00366
-39.4581	237.176	7.07202
-39.4533	238.998	7.14038
-39.4475	241.63	7.20874
-39.4414	244.7919	7.2771
-39.4357	252.605	7.345459
-39.4312	254.145	7.41382
-39.4243	256.844	7.48218
-39.4202	265.087	7.55054
-39.4135	267.774	7.6189
-39.4084	268.925	7.68726
-39.4029	268.978	7.75562
-39.3975	272.476	7.82397
-39.3902	274.779	7.892334
-39.3849	276.859	7.96069
-39.3786	283.318	8.02905
-39.373	285.166	8.09741
-39.3681	289.255	8.16577
-39.3629	298.064	8.23413
-39.3578	301.192	8.30249
-39.3509	301.806	8.37085
-39.3441	304.29	8.439209
-39.33868	303.388	8.50757
-39.3335	307.19	8.57593
-39.3286	309.36	8.64429
-39.3216	312.32	8.71265
-39.3161	315.343	8.78101
-39.3111	319.954	8.84937
-39.305	327.46	8.91772
-39.2991	331.4086	8.986084
-39.2942	333.703	9.05444
-39.2889	335.229	9.1228
-39.2827	335.979	9.19116
-39.2772	339.949	9.25952
-39.2707	341.961	9.32788
-39.2663	343.086	9.39624
-39.2593	343.629	9.4646
-39.2539	349.427	9.532959
-39.2482	357.032	9.60132
-39.2425	360.769	9.66968
-39.2371	364.005	9.73804
-39.2313	366.0065	9.8064
-39.225	366.773	9.87476
-39.2197	369.887	9.94312
-39.21384	370.772	10.0115
-39.2087	370.481	10.0798
-39.2022	373.125	10.1482
-39.1969	376.54	10.2166
-39.1916	384.422	10.2849
-39.186	386.754	10.3533
-39.1802	394.094	10.4216
-39.1738	397.043	10.48999
-39.1693	396.46	10.55835
-39.1625	399.338	10.6267
-39.1568	401.085	10.6951
-39.15247	399.08	10.7634
-39.1464	399.449	10.8318
-39.1404	406.4314	10.9001
-39.1349	410.518	10.9685
-39.1293	411.122	11.0369
-39.1234	417.629	11.1052
-39.1169	422.886	11.1736
-39.1118	424.019	11.2419
-39.1056	425.556	11.3103
-39.101	427.6763	11.3787
-39.09478	423.6828	11.447
-39.0894	423.382	11.5154
-39.0826	430.565	11.58374
-39.0775	432.017	11.6521
-39.072	433.773	11.7205
-39.0667	439.372	11.7888
-39.0606	443.746	11.8572
-39.0545	445.77	11.9255
-39.0497	449.242	11.9939
-39.043	449.968	12.0623
-39.0383	445.907	12.1306
-39.0321	445.367	12.199
-39.0263	450.9538	12.2673
-39.0212	451.492	12.3357
-39.01569	451.279	12.4041
-39.0084	459.88	12.4724
-39.0046	461.296	12.5408
-38.998	464.481	12.6091
-38.993	463.959	12.67749
-38.98568	466.81	12.74585
-38.9802	462.845	12.8142
-38.97472	461.145	12.8826
-38.9696	465.377	12.9509
-38.9621	463.4548	13.0193
-38.9581	464.504	13.0876
-38.9526	469.831	13.156
-38.9466	471.073	13.2244
-38.9411	473.046	13.2927
-38.9347	475.0311	13.3611
-38.928	476.312	13.4294
-38.92458	471.683	13.4978
-38.9172	470.264	13.5662
-38.9126	474.225	13.6345
-38.90609	472.084	13.7029
-38.9015	469.667	13.77124
-38.8955	472.564	13.8396
-38.8892	473.669	13.908
-38.8842	476.291	13.9763
-38.8781	478.441	14.0447
-38.8727	479.206	14.113
-38.8677	473.318	14.1814
-38.8616	473.156	14.2498
-38.8539	474.437	14.3181
-38.8494	470.901	14.3865
-38.8433	468.842	14.4548
-38.8384	470.046	14.5232
-38.8318	469.624	14.5916
-38.8275	471.683	14.6599
-38.8212	474.4101	14.7283
-38.8159	473.211	14.7966
-38.809	471.4935	14.86499
-38.8043	471.142	14.93335
-38.7984	471.749	15.0017
-38.793	467.359	15.0701
-38.7864	465.416	15.1384
-38.7823	464.595	15.2068
-38.77573	463.786	15.2751
-38.7698	465.44	15.3435
-38.764	466.664	15.4119
-38.7584	466.112	15.4802
-38.7519	464.139	15.5486
-38.7479	469.343	15.6169
-38.7418	468.164	15.6853
-38.7361	463.314	15.7537
-38.7314	461.952	15.822
-38.7238	458.385	15.8904
-38.7195	458.345	15.95874
-38.714	461.128	16.0271
-38.7073	461.449	16.0955
-38.7022	458.823	16.1638
-38.6965	461.182	16.2322
-38.6912	465.105	16.3005
-38.68457	462.698	16.3689
-38.6786	461.518	16.4373
-38.6731	460.031	16.5056
-38.6684	456.001	16.574
-38.6621	456.588	16.6423
-38.6562	458.542	16.7107
-38.6507	456.007	16.7791
-38.6461	454.05	16.8474
-38.63895	457.464	16.9158
-38.63369	462.524	16.9841
-38.628	458.108	17.05249
-38.6219	459.922	17.12085
-38.61607	458.193	17.1892
-38.611	452.47	17.2576
-38.6051	454.6973	17.3259
-38.5979	455.155	17.3943
-38.5941	451.788	17.4626
-38.5878	450.315	17.531
-38.5818	455.815	17.5994
-38.5756	458.507	17.6677
-38.5699	457.09	17.7361
-38.5644	459.091	17.8044
-38.55957	458.8197	17.8728
-38.554	454.297	17.9412
-38.5484	452.05	18.0095
-38.5422	451.841	18.0779
-38.5363	447.653	18.14624
-38.5315	447.859	18.2146
-38.5253	452.885	18.283
-38.5194	455.529	18.3513
-38.5137	455.523	18.4197
-38.5074	457.735	18.488
-38.50206	457.092	18.5564
-38.4963	455.855	18.6248
-38.491	453.741	18.6931
-38.48484	453.716	18.7615
-38.4786	447.36	18.8298
-38.474	445.8909	18.8982
-38.4683	452.02	18.9666
-38.4627	454.247	19.0349
-38.4569	452.402	19.1033
-38.4497	456.241	19.1716
-38.4457	457.312	19.23999
-38.4384	456.513	19.30835
-38.4342	453.234	19.3767
-38.4284	452.344	19.4451
-38.4222	447.273	19.5134
-38.4169	445.308	19.5818
-38.4106	449.959	19.6501
-38.40509	450.736	19.7185
-38.3994	450.466	19.7869
-38.3938	454.242	19.8552
-38.3881	454.39	19.9236
-38.3818	456.334	19.9919
-38.3808	448.771	20.02124

Data Header:			0.254_solid_dimension_typeiv_090_r0			Time:	36.23584	s	4/14/2019 1:45:16 AM
Data Acquisition:	Timed
Station Name:	ft40.cfg
Test File Name:	monotonic_0.2540_typeiv_solid_090_dimension.tst
Displacement	Force	Running Time
mm	N	s
-38.3797	446.711	20.031
-38.3737	448.662	20.0896
-38.37019	445.953	20.1482
-38.36499	446.246	20.2068
-38.3595	445.677	20.2654
-38.3559	448.2702	20.324
-38.3495	450.327	20.3826
-38.3456	451.252	20.4412
-38.3402	454.313	20.4998
-38.3351	454.478	20.55835
-38.3307	455.203	20.6169
-38.32526	454.087	20.6755
-38.32029	455.749	20.7341
-38.3152	454.203	20.7927
-38.3105	452.03	20.8513
-38.3058	452.305	20.9099
-38.301	450.13	20.9685
-38.2967	448.811	21.0271
-38.2921	447.633	21.0857
-38.2863	447.855	21.1443
-38.2811	446.004	21.2029
-38.2776	448.355	21.2615
-38.2715	449.421	21.3201
-38.2688	449.639	21.3787
-38.2615	454.449	21.4373
-38.2565	451.136	21.49585
-38.2522	453.606	21.5544
-38.2478	452.164	21.613
-38.24234	454.9848	21.6716
-38.2391	449.653	21.7302
-38.2324	452.3653	21.7888
-38.2279	446.987	21.8474
-38.2233	449.045	21.906
-38.2185	445.101	21.9646
-38.2137	447.606	22.0232
-38.208	444.357	22.0818
-38.2045	446.2114	22.1404
-38.1982	448.85	22.199
-38.1933	450.33	22.2576
-38.1889	451.087	22.3162
-38.1839	452.3	22.3748
-38.1793	454.597	22.43335
-38.1745	454.67	22.4919
-38.1693	455.092	22.5505
-38.1643	454.665	22.6091
-38.1591	452.407	22.6677
-38.1537	452.826	22.7263
-38.1497	450.9209	22.7849
-38.1449	449.917	22.8435
-38.13942	447.568	22.9021
-38.1345	448.4043	22.9607
-38.13	445.957	23.0193
-38.125	447.561	23.0779
-38.1206	448.554	23.1365
-38.1153	448.688	23.1951
-38.1112	451.491	23.2537
-38.1065	449.961	23.3123
-38.1022	451.8967	23.37085
-38.0971	451.4985	23.4294
-38.09063	456.036	23.488
-38.0867	451.248	23.5466
-38.0805	452.349	23.6052
-38.0774	449.092	23.6638
-38.0715	449.967	23.7224
-38.0664	446.474	23.781
-38.0625	447.0462	23.8396
-38.0577	444.599	23.8982
-38.0534	445.845	23.9568
-38.047	447.573	24.0154
-38.0417	449.799	24.074
-38.0384	450.009	24.1326
-38.0343	450.804	24.1912
-38.0277	454.061	24.2498
-38.0227	452.771	24.30835
-38.0183	455.184	24.3669
-38.0132	455.069	24.4255
-38.0082	453.885	24.4841
-38.0037	453.015	24.5427
-37.998	450.343	24.6013
-37.994	451.467	24.6599
-37.9889	447.41	24.7185
-37.98391	449.604	24.7771
-37.97924	444.221	24.8357
-37.9759	445.327	24.8943
-37.9692	446.736	24.9529
-37.9638	446.907	25.0115
-37.9587	448.89	25.0701
-37.9529	447.7067	25.1287
-37.9496	453.079	25.1873
-37.9456	448.698	25.24585
-37.93922	455.086	25.3044
-37.9352	450.452	25.363
-37.9305	454.007	25.4216
-37.925	449.825	25.4802
-37.9206	452.169	25.5388
-37.9151	444.899	25.5974
-37.9096	448.751	25.656
-37.90694	445.954	25.7146
-37.9	446.319	25.7732
-37.8963	444.8725	25.8318
-37.8908	447.499	25.8904
-37.8869	448.771	25.949
-37.8811	447.657	26.0076
-37.8762	453.374	26.0662
-37.8721	451.123	26.1248
-37.8662	453.355	26.18335
-37.8615	453.814	26.2419
-37.8573	454.227	26.3005
-37.85284	454.148	26.3591
-37.8477	451.297	26.4177
-37.8429	452.722	26.4763
-37.8386	448.262	26.5349
-37.8318	446.54	26.5935
-37.828	445.702	26.6521
-37.8221	444.673	26.7107
-37.8176	444.404	26.7693
-37.8128	445.422	26.8279
-37.8085	447.366	26.8865
-37.80302	445.872	26.9451
-37.799	451.722	27.0037
-37.7927	447.766	27.0623
-37.7887	452.076	27.12085
-37.7833	449.347	27.1794
-37.779	454.931	27.238
-37.7725	448.659	27.2966
-37.7699	452.215	27.3552
-37.7646	446.467	27.4138
-37.75885	448.899	27.4724
-37.7538	445.721	27.531
-37.749	446.45	27.5896
-37.7449	444.895	27.6482
-37.7398	444.754	27.7068
-37.7351	447.646	27.7654
-37.73003	445.8642	27.824
-37.7245	449.928	27.8826
-37.7203	449.994	27.9412
-37.7143	451.46	27.9998
-37.7105	449.852	28.05835
-37.7054	454.16	28.1169
-37.7003	451.568	28.1755
-37.6961	451.795	28.2341
-37.6916	452.4761	28.2927
-37.6866	448.538	28.3513
-37.6817	450.0032	28.4099
-37.677	447.476	28.4685
-37.6716	446.214	28.5271
-37.6666	444.133	28.5857
-37.6617	444.429	28.6443
-37.6564	444.917	28.7029
-37.653	443.197	28.7615
-37.6458	447.408	28.8201
-37.6424	446.541	28.8787
-37.6384	449.05	28.9373
-37.6327	446.868	28.99585
-37.6265	453.408	29.0544
-37.62159	447.086	29.113
-37.6173	451.111	29.1716
-37.6137	447.703	29.2302
-37.6079	447.611	29.2888
-37.6031	445.271	29.3474
-37.5983	445.503	29.406
-37.5936	441.63	29.4646
-37.5884	442.161	29.5232
-37.58297	444.99	29.5818
-37.5776	444.102	29.6404
-37.5733	447.336	29.699
-37.5682	447.828	29.7576
-37.5634	449.065	29.8162
-37.5598	448.829	29.8748
-37.5538	451.613	29.93335
-37.549	451.351	29.9919
-37.5449	449.64	30.0505
-37.5403	451.3862	30.1091
-37.5341	448.756	30.1677
-37.5289	449.15	30.2263
-37.5248	445.854	30.2849
-37.5203	446.422	30.3435
-37.5149	443.896	30.4021
-37.5107	443.5788	30.4607
-37.5046	443.315	30.5193
-37.5008	440.774	30.5779
-37.4949	443.473	30.6365
-37.49036	442.5675	30.6951
-37.4855	448.021	30.7537
-37.4797	444.894	30.8123
-37.4759	450.634	30.87085
-37.4714	447.1864	30.9294
-37.4662	451.625	30.988
-37.4613	446.632	31.0466
-37.4565	449.313	31.1052
-37.452	442.752	31.1638
-37.44659	445.287	31.2224
-37.4419	442.828	31.281
-37.4367	440.668	31.3396
-37.4328	443.052	31.3982
-37.4269	443.339	31.4568
-37.4232	443.438	31.5154
-37.417	443.149	31.574
-37.412	444.573	31.6326
-37.40794	444.856	31.6912
-37.4031	447.559	31.7498
-37.3984	449.619	31.80835
-37.3933	447.442	31.8669
-37.3885	448.789	31.9255
-37.38298	446.726	31.9841
-37.379	447.196	32.0427
-37.3734	442.912	32.1013
-37.3693	445.186	32.1599
-37.3638	441.368	32.2185
-37.3593	439.395	32.2771
-37.3535	441.005	32.3357
-37.3486	438.05	32.3943
-37.3445	439.887	32.4529
-37.3406	440.024	32.5115
-37.3344	443.678	32.5701
-37.3288	439.912	32.6287
-37.3242	444.186	32.6873
-37.3199	441.56	32.74585
-37.3158	445.323	32.8044
-37.3101	443.027	32.863
-37.3041	443.947	32.9216
-37.2998	440.703	32.9802
-37.29575	441.957	33.0388
-37.29	439.471	33.0974
-37.2853	438.562	33.156
-37.2799	438.559	33.2146
-37.27552	438.393	33.2732
-37.2704	438.5564	33.3318
-37.26675	437.492	33.3904
-37.2602	441.14	33.449
-37.25684	438.905	33.5076
-37.2522	440.312	33.5662
-37.2467	441.4054	33.6248
-37.2418	443.544	33.68335
-37.2374	443.476	33.7419
-37.2323	442.605	33.8005
-37.22649	443.1225	33.8591
-37.2217	439.086	33.9177
-37.2178	442.128	33.9763
-37.2122	436.556	34.0349
-37.2075	437.009	34.0935
-37.2027	434.451	34.1521
-37.1985	435.057	34.2107
-37.193	433.372	34.2693
-37.1872	432.635	34.3279
-37.1836	435.427	34.3865
-37.1789	432.108	34.4451
-37.173	436.841	34.5037
-37.1671	434.2403	34.5623
-37.163	440.26	34.62085
-37.159	435.9	34.6794
-37.1531	439.4176	34.738
-37.1493	434.22	34.7966
-37.1441	434.076	34.8552
-37.1388	432.753	34.9138
-37.13443	430.419	34.9724
-37.1285	428.053	35.031
-37.1241	425.946	35.0896
-37.1199	422.819	35.1482
-37.1147	420.508	35.2068
-37.1101	412.147	35.2654
-37.1038	-45.2379	35.324
-37.0998	-42.35	35.3826
-37.0951	-41.5916	35.4412
-37.0901	-41.0181	35.4998
-37.0852	-39.1522	35.55835
-37.08009	-39.7073	35.6169
-37.074	-37.7445	35.6755
-37.0693	-42.8009	35.7341
-37.0659	-39.9735	35.7927
-37.0598	-43.9485	35.8513
-37.0557	-42.7509	35.9099
-37.0506	-46.3592	35.9685
-37.0466	-45.4853	36.0271
-37.04002	-46.51	36.0857
-37.0359	-46.5323	36.1443
-37.0322	-43.9299	36.2029
-37.0299	-42.6901	36.2224