File: data/processed_data_files/tensile/0.254_solid_dimension_typei_4545_r(3).dat
MTS793|BTW|ENU|1|2|.|/|:|1|0|0|A

Data Header:			0.254_solid_dimension_typei_4545_r0			Time:	20.0193	s	4/14/2019 4:49:37 AM
Data Acquisition:	Timed
Station Name:	ft40.cfg
Test File Name:	monotonic_0.2540_typei_solid_4545_dimension.tst
Displacement	Force	Running Time
mm	N	s
9.95668	-146.479	0.0224609
9.95758	-139.393	0.0908203
9.96418	-133.3367	0.15918
9.96895	-126.062	0.227539
9.97569	-117.912	0.295898
9.9814	-111.354	0.364258
9.98777	-111.138	0.432617
9.99188	-111.7571	0.500977
9.99806	-107.359	0.569336
10.0041	-111.064	0.637695
10.0092	-112.485	0.706055
10.0154	-108.2418	0.774414
10.0198	-103.164	0.842773
10.026	-95.1283	0.911133
10.0324	-85.6245	0.979492
10.0375	-79.0074	1.04785
10.0437	-76.4905	1.11621
10.0501	-71.7395	1.18457
10.0555	-70.3323	1.25293
10.0608	-73.3337	1.32129
10.0659	-73.9928	1.38965
10.072	-72.32914	1.45801
10.0776	-69.4585	1.52637
10.08338	-60.766	1.59473
10.08986	-53.769	1.66309
10.0954	-45.5112	1.73145
10.1008	-40.7546	1.7998
10.1068	-35.8935	1.86816
10.1107	-31.1192	1.93652
10.1181	-35.042	2.00488
10.12331	-34.1776	2.07324
10.1289	-34.2342	2.1416
10.1347	-32.2217	2.20996
10.1401	-24.4241	2.27832
10.1463	-17.7886	2.34668
10.1517	-12.8865	2.41504
10.1587	-4.006104	2.4834
10.1639	3.22621	2.55176
10.1688	6.6611	2.62012
10.1752	6.76777	2.68848
10.1795	6.459548	2.75684
10.1865	6.47073	2.8252
10.1917	5.60828	2.89355
10.19759	11.3102	2.96191
10.2034	18.6985	3.03027
10.209	23.8078	3.09863
10.2146	28.8933	3.16699
10.2216	41.6279	3.23535
10.2253	46.53339	3.30371
10.2313	48.1951	3.37207
10.2376	49.6746	3.44043
10.2434	48.629	3.50879
10.2488	46.063	3.57715
10.2532	48.9454	3.64551
10.2601	55.2333	3.71387
10.26641	58.0667	3.78223
10.2706	65.5327	3.85059
10.2762	78.0924	3.91895
10.2816	86.2091	3.9873
10.2883	87.8337	4.05566
10.2945	90.3286	4.12402
10.3002	93.1352	4.19238
10.3057	90.1009	4.26074
10.3109	92.0242	4.3291
10.3171	94.2345	4.39746
10.3222	96.41497	4.46582
10.3275	102.096	4.53418
10.3339	115.874	4.60254
10.33933	121.998	4.6709
10.34559	127.392	4.73926
10.3521	132.933	4.80762
10.3563	135.214	4.87598
10.3625	131.29	4.94434
10.3681	132.07	5.0127
10.3737	135.973	5.08105
10.378	133.736	5.14941
10.3849	137.756	5.21777
10.3912	150.1378	5.28613
10.3961	160.031	5.35449
10.4022	165.118	5.42285
10.4083	172.166	5.49121
10.4134	174.314	5.55957
10.4184	175.939	5.62793
10.4259	175.503	5.69629
10.4305	175.495	5.76465
10.4364	173.948	5.83301
10.4422	176.701	5.90137
10.4476	186.1	5.96973
10.4532	195.0352	6.03809
10.45918	200.411	6.10645
10.4643	209.704	6.1748
10.4701	217.449	6.24316
10.4758	219.758	6.31152
10.4813	219.855	6.37988
10.4877	219.156	6.44824
10.494	216.294	6.5166
10.4986	215.0663	6.58496
10.5048	224.2196	6.65332
10.5105	231.037	6.72168
10.51704	238.46	6.79004
10.5213	248.363	6.8584
10.5276	253.3586	6.92676
10.5338	260.49	6.99512
10.5383	263.066	7.06348
10.545	260.753	7.13184
10.551	258.394	7.2002
10.5563	257.036	7.26855
10.5612	262.698	7.33691
10.5668	267.315	7.40527
10.5732	276.006	7.47363
10.5804	283.924	7.54199
10.58459	291.142	7.61035
10.5906	300.158	7.67871
10.5951	303.213	7.74707
10.6012	302.718	7.81543
10.608	300.162	7.88379
10.6129	300.514	7.95215
10.6186	300.8356	8.02051
10.6239	303.173	8.08887
10.6298	311.101	8.15723
10.6357	319.066	8.22559
10.6412	327.099	8.29395
10.6466	337.25	8.3623
10.6528	343.562	8.43066
10.6582	342.408	8.49902
10.6642	341.565	8.56738
10.6702	344.602	8.63574
10.6753	342.312	8.7041
10.6814	340.728	8.77246
10.687	346.098	8.84082
10.6916	350.692	8.90918
10.6985	358.234	8.97754
10.7038	370.175	9.0459
10.7096	380.697	9.11426
10.71544	383.952	9.18262
10.72073	384.554	9.25098
10.7267	388.489	9.31934
10.7321	383.899	9.3877
10.7373	381.423	9.45605
10.7437	384.047	9.52441
10.7498	387.054	9.59277
10.7549	392.004	9.66113
10.7612	404.496	9.72949
10.766	415.475	9.79785
10.7722	419.178	9.86621
10.77788	424.249	9.93457
10.7837	429.866	10.00293
10.7897	427.084	10.0713
10.7946	422.627	10.1396
10.8007	423.432	10.208
10.8066	424.387	10.2764
10.8122	428.782	10.3447
10.8175	436.399	10.4131
10.8236	447.833	10.4814
10.8298	455.943	10.5498
10.835	460.666	10.6182
10.8411	471.043	10.6865
10.8459	470.189	10.7549
10.8521	465.199	10.8232
10.85814	464.971	10.8916
10.8639	462.862	10.96
10.8691	463.994	11.02832
10.8751	471.278	11.09668
10.8803	480.8374	11.165
10.8873	488.752	11.2334
10.8925	498.173	11.3018
10.8971	508.828	11.3701
10.904	509.5358	11.4385
10.9096	507.613	11.5068
10.9146	504.8418	11.5752
10.9197	502.878	11.6436
10.9255	501.841	11.7119
10.9313	506.667	11.7803
10.9376	511.93	11.8486
10.94278	520.99	11.917
10.9476	529.4599	11.9854
10.9541	542.647	12.0537
10.9597	545.961	12.12207
10.9671	547.488	12.19043
10.9723	545.571	12.2588
10.97662	541.582	12.3271
10.98351	542.287	12.3955
10.9881	541.859	12.4639
10.9948	546.029	12.5322
11.0005	551.876	12.6006
11.00519	563.388	12.6689
11.0114	574.131	12.7373
11.0181	580.789	12.8057
11.0229	584.057	12.874
11.02855	586.149	12.9424
11.0347	583.274	13.0107
11.0409	580.063	13.0791
11.0443	578.131	13.1475
11.0516	578.894	13.21582
11.0564	584.454	13.28418
11.0633	595.139	13.3525
11.0686	604.83	13.4209
11.0746	612.1925	13.4893
11.07947	621.7771	13.5576
11.0853	622.918	13.626
11.091	622.596	13.6943
11.09754	621.6745	13.7627
11.1026	617.381	13.8311
11.10836	612.998	13.8994
11.115	617.173	13.9678
11.1193	625.538	14.0361
11.1245	635.935	14.1045
11.1308	642.914	14.1729
11.1372	654.333	14.2412
11.1424	658.731	14.30957
11.147	659.573	14.37793
11.1538	660.897	14.4463
11.1595	656.957	14.5146
11.1651	651.544	14.583
11.1706	649.645	14.6514
11.1768	657.004	14.7197
11.1825	663.225	14.7881
11.1887	672.992	14.8564
11.1946	686.396	14.9248
11.1988	690.13	14.9932
11.2047	696.302	15.0615
11.2102	697.964	15.1299
11.2158	695.203	15.1982
11.2221	686.372	15.2666
11.2275	686.037	15.335
11.2333	692.632	15.40332
11.2393	692.728	15.47168
11.2448	702.537	15.54
11.2518	714.691	15.6084
11.2571	722.643	15.6768
11.2614	729.715	15.7451
11.2681	734.102	15.8135
11.2733	731.974	15.8818
11.27837	724.282	15.9502
11.2849	722.79	16.0186
11.291	725.686	16.0869
11.2968	724.094	16.1553
11.3023	730.802	16.2236
11.3073	742.307	16.292
11.3132	749.411	16.3604
11.3187	760.785	16.4287
11.32435	765.692	16.49707
11.3317	768.1084	16.56543
11.3359	761.25	16.6338
11.34088	758.396	16.7021
11.3473	760.449	16.7705
11.3537	757.373	16.8389
11.3585	759.824	16.9072
11.3644	769.011	16.9756
11.3709	777.35	17.0439
11.3764	788.39	17.1123
11.3825	797.685	17.1807
11.3868	800.339	17.249
11.3931	797.647	17.3174
11.3976	796.613	17.3857
11.4054	794.1452	17.4541
11.41093	789.624	17.5225
11.41552	791.28	17.59082
11.4219	796.795	17.65918
11.4277	805.408	17.7275
11.4333	815.308	17.7959
11.439	826.231	17.8643
11.4448	828.642	17.9326
11.4495	831.676	18.001
11.4558	830.851	18.0693
11.4612	828.603	18.1377
11.4681	821.628	18.2061
11.4727	822.638	18.2744
11.48	824.654	18.3428
11.4847	832.846	18.4111
11.4899	842.59	18.4795
11.4954	851.385	18.5479
11.5006	855.714	18.6162
11.5072	860.472	18.68457
11.5126	862.835	18.75293
11.5183	859.415	18.8213
11.52279	854.792	18.8896
11.5291	854.053	18.958
11.5357	852.247	19.0264
11.5416	858.905	19.0947
11.54635	866.073	19.1631
11.5518	875.835	19.2314
11.558	882.286	19.2998
11.5641	889.037	19.3682
11.5694	894.659	19.4365
11.5751	890.825	19.5049
11.5806	888.037	19.5732
11.586	885.453	19.6416
11.5917	880.502	19.71
11.5972	885.623	19.77832
11.6037	890.846	19.84668
11.6093	897.875	19.915
11.61508	903.285	19.9834
11.6182	902.622	20.0127

Data Header:			0.254_solid_dimension_typei_4545_r0			Time:	40.0193	s	4/14/2019 4:49:57 AM
Data Acquisition:	Timed
Station Name:	ft40.cfg
Test File Name:	monotonic_0.2540_typei_solid_4545_dimension.tst
Displacement	Force	Running Time
mm	N	s
11.6189	894.752	20.0225
11.6242	893.9	20.09082
11.6306	901.809	20.15918
11.6353	909.822	20.2275
11.6401	919.112	20.2959
11.6462	927.536	20.3643
11.652	929.245	20.4326
11.6578	930.922	20.501
11.6637	930.486	20.5693
11.66985	927.743	20.6377
11.675	922.429	20.7061
11.6805	920.588	20.7744
11.6866	924.4425	20.8428
11.692	931.613	20.9111
11.6973	942.0116	20.9795
11.7043	948.448	21.0479
11.7096	952.245	21.1162
11.7145	955.885	21.18457
11.7213	958.4	21.25293
11.7262	954.224	21.3213
11.7326	948.6192	21.3896
11.7381	951.0199	21.458
11.7441	947.075	21.5264
11.7495	952.956	21.5947
11.7555	961.888	21.6631
11.7599	967.876	21.7314
11.7664	972.949	21.7998
11.7713	979.937	21.8682
11.7777	981.588	21.9365
11.7827	979.48	22.0049
11.7891	976.6131	22.0732
11.7951	972.666	22.1416
11.8002	969.188	22.21
11.8062	972.628	22.27832
11.8124	978.214	22.34668
11.8172	983.432	22.415
11.82369	990.712	22.4834
11.8287	998.569	22.5518
11.8344	1004.45	22.6201
11.84144	1000.21	22.6885
11.8459	999.833	22.7568
11.851	998.14	22.8252
11.8589	991.791	22.8936
11.8633	994.5	22.9619
11.8687	997.192	23.0303
11.8741	1000.39	23.0986
11.8793	1006.13	23.167
11.8862	1016.629	23.2354
11.8922	1023.44	23.3037
11.8965	1022.75	23.37207
11.9038	1024.06	23.44043
11.9086	1020.42	23.5088
11.9137	1014.43	23.5771
11.9192	1013.61	23.6455
11.9254	1015.1	23.7139
11.9315	1015.25	23.7822
11.9376	1019.76	23.8506
11.9422	1032.26	23.9189
11.9482	1039.01	23.9873
11.9533	1039.58	24.0557
11.9603	1041.62	24.124
11.9652	1039.32	24.1924
11.9721	1035.18	24.2607
11.976	1029.94	24.3291
11.9822	1030.44	24.3975
11.98712	1030.63	24.46582
11.9948	1033.87	24.53418
11.9994	1043.95	24.6025
12.0054	1050.6	24.6709
12.0097	1053.32	24.7393
12.0159	1055.412	24.8076
12.023	1056.61	24.876
12.0284	1052.9	24.9443
12.0341	1048.33	25.0127
12.04	1047.31	25.0811
12.046	1043.38	25.1494
12.0508	1043.88	25.2178
12.0564	1052.78	25.2861
12.0629	1060.131	25.3545
12.0678	1064.38	25.4229
12.0739	1068.58	25.4912
12.0802	1070.04	25.55957
12.0856	1069.84	25.62793
12.089	1063.44	25.6963
12.0966	1058.714	25.7646
12.1028	1053.762	25.833
12.1083	1054.57	25.9014
12.1138	1059.28	25.9697
12.1198	1065.32	26.0381
12.125	1071.08	26.1064
12.1317	1076.43	26.1748
12.1369	1078.35	26.2432
12.14174	1081.11	26.3115
12.1468	1077.72	26.3799
12.1537	1071.82	26.4482
12.159	1065.73	26.5166
12.1656	1064.33	26.585
12.1699	1066.28	26.65332
12.17604	1068.63	26.72168
12.1818	1076.87	26.79
12.1869	1081.9	26.8584
12.1939	1086.96	26.9268
12.199	1089.83	26.9951
12.2047	1088.1	27.0635
12.2096	1081.532	27.1318
12.2154	1075.47	27.2002
12.2213	1073.3	27.2686
12.227	1071.07	27.3369
12.2333	1071.86	27.4053
12.23834	1078.01	27.4736
12.245	1084.8	27.542
12.2503	1090.63	27.6104
12.2557	1095.58	27.6787
12.2616	1095.18	27.74707
12.26816	1089.69	27.81543
12.27283	1084.79	27.8838
12.2796	1082.44	27.9521
12.2839	1077	28.0205
12.2901	1075.6	28.0889
12.2956	1080.9	28.1572
12.3015	1084.58	28.2256
12.3072	1090.3	28.2939
12.31214	1099.61	28.3623
12.3182	1100.01	28.4307
12.3241	1095.7	28.499
12.3299	1092.63	28.5674
12.3353	1090.6	28.6357
12.3412	1082.1	28.7041
12.3476	1079.54	28.7725
12.3533	1082.23	28.84082
12.3588	1082.92	28.90918
12.3646	1089.45	28.9775
12.3703	1098.02	29.0459
12.3756	1100.36	29.1143
12.3811	1098	29.1826
12.3874	1097.19	29.251
12.3921	1097.57	29.3193
12.3982	1089.69	29.3877
12.4041	1084	29.4561
12.4099	1083.75	29.5244
12.415	1083	29.5928
12.4198	1087.61	29.6611
12.4273	1096.24	29.7295
12.4328	1101.03	29.7979
12.43772	1098.99	29.8662
12.4439	1100.58	29.93457
12.4499	1102.05	30.00293
12.4546	1093.261	30.0713
12.4607	1087.13	30.1396
12.4673	1083.94	30.208
12.47183	1083.29	30.2764
12.4785	1084.67	30.3447
12.4843	1092.96	30.4131
12.4893	1097.12	30.4814
12.4944	1097.95	30.5498
12.50082	1102.63	30.6182
12.5063	1104.472	30.6865
12.51219	1097.38	30.7549
12.518	1090.13	30.8232
12.524	1086.21	30.8916
12.5299	1084.511	30.96
12.5342	1083.71	31.02832
12.5409	1088.74	31.09668
12.5459	1093.16	31.165
12.5534	1095.62	31.2334
12.55736	1101.65	31.3018
12.5647	1105.56	31.3701
12.5694	1100.18	31.4385
12.57495	1094.298	31.5068
12.5812	1089.79	31.5752
12.58561	1087.04	31.6436
12.5913	1085.93	31.7119
12.5979	1086.57	31.7803
12.6028	1088.65	31.8486
12.60897	1094.06	31.917
12.6148	1100.02	31.9854
12.6205	1102.9	32.0537
12.6256	1100.45	32.12207
12.6324	1097.27	32.19043
12.6368	1094.52	32.2588
12.6435	1089.78	32.3271
12.6491	1084.5	32.3955
12.6556	1083.51	32.4639
12.6601	1083.68	32.5322
12.6652	1088.17	32.6006
12.6719	1095.41	32.6689
12.6779	1099.76	32.7373
12.6837	1100.11	32.8057
12.6891	1100.97	32.874
12.6948	1095.23	32.9424
12.6999	1091.28	33.0107
12.7064	1086.311	33.0791
12.71168	1083.05	33.1475
12.7161	1080.75	33.21582
12.7232	1086.19	33.28418
12.728	1090.94	33.3525
12.7343	1095.46	33.4209
12.7401	1098.63	33.4893
12.7456	1100.24	33.5576
12.75089	1096.15	33.626
12.757	1094.03	33.6943
12.7631	1089.63	33.7627
12.7693	1082.21	33.8311
12.7739	1078.21	33.8994
12.7809	1082	33.9678
12.7859	1087.4	34.0361
12.7905	1088.21	34.1045
12.79795	1094.59	34.1729
12.8029	1099.46	34.2412
12.8076	1096.41	34.30957
12.8133	1095.75	34.37793
12.8199	1093.82	34.4463
12.8247	1083.443	34.5146
12.831	1078.15	34.583
12.8371	1080.77	34.6514
12.8414	1085.04	34.7197
12.8476	1085.2	34.7881
12.8534	1091.672	34.8564
12.8595	1096.264	34.9248
12.8655	1096.33	34.9932
12.8708	1098.87	35.0615
12.87591	1094.03	35.1299
12.8827	1086.9	35.1982
12.888	1079.39	35.2666
12.8944	1080.8	35.335
12.8986	1080.63	35.40332
12.9043	1080.833	35.47168
12.9114	1087.02	35.54
12.9155	1092.98	35.6084
12.9221	1096.79	35.6768
12.9279	1098.84	35.7451
12.9335	1096.017	35.8135
12.9395	1087.88	35.8818
12.9443	1081.1	35.9502
12.951	1081.74	36.0186
12.9568	1078.23	36.0869
12.9606	1076.69	36.1553
12.9673	1082.26	36.2236
12.9734	1087.17	36.292
12.9791	1095.01	36.3604
12.9844	1096.56	36.4287
12.9908	1096.15	36.49707
12.9956	1091.99	36.56543
13.0013	1084.73	36.6338
13.0074	1082.26	36.7021
13.0144	1078.21	36.7705
13.01837	1075.3	36.8389
13.0245	1079.24	36.9072
13.0303	1082.55	36.9756
13.0353	1091.42	37.0439
13.0421	1094.62	37.1123
13.0478	1096.21	37.1807
13.0529	1092.03	37.249
13.0593	1087.7	37.3174
13.0638	1085.41	37.3857
13.07	1081.59	37.4541
13.0762	1075.75	37.5225
13.0809	1076.09	37.59082
13.0871	1079.65	37.65918
13.0927	1085.89	37.7275
13.0985	1091.61	37.7959
13.10438	1094.45	37.8643
13.1102	1093.86	37.9326
13.1168	1092.66	38.001
13.1207	1089.19	38.0693
13.1269	1080.99	38.1377
13.1334	1077.71	38.2061
13.1383	1074.66	38.2744
13.1437	1077.16	38.3428
13.1505	1082.51	38.4111
13.1558	1086.59	38.4795
13.1612	1089.57	38.5479
13.1674	1091.25	38.6162
13.17403	1094.22	38.68457
13.1781	1089.16	38.75293
13.1833	1082.152	38.8213
13.1903	1080.884	38.8896
13.195	1073.93	38.958
13.2004	1074.96	39.0264
13.2071	1080.27	39.0947
13.2123	1082.07	39.1631
13.2176	1084.899	39.2314
13.22412	1090	39.2998
13.2298	1092.71	39.3682
13.2357	1090.593	39.4365
13.2409	1087.2	39.5049
13.247	1082.84	39.5732
13.2523	1076.01	39.6416
13.2581	1073.25	39.71
13.2639	1076.36	39.77832
13.2697	1079.04	39.84668
13.2746	1079.11	39.915
13.2804	1084.31	39.9834
13.2838	1080.29	40.0127

Data Header:			0.254_solid_dimension_typei_4545_r0			Time:	60.0193	s	4/14/2019 4:50:17 AM
Data Acquisition:	Timed
Station Name:	ft40.cfg
Test File Name:	monotonic_0.2540_typei_solid_4545_dimension.tst
Displacement	Force	Running Time
mm	N	s
13.2832	1072.156	40.0225
13.2895	1072.689	40.09082
13.2955	1075.85	40.15918
13.3025	1082.09	40.2275
13.3069	1088.45	40.2959
13.3126	1089.89	40.3643
13.3189	1088.589	40.4326
13.3249	1090.03	40.501
13.3292	1084.53	40.5693
13.336	1078.41	40.6377
13.3408	1074.5	40.7061
13.3468	1071.04	40.7744
13.3526	1074.36	40.8428
13.3581	1078.293	40.9111
13.3643	1085.12	40.9795
13.3693	1087.24	41.0479
13.3752	1088.06	41.1162
13.3809	1091.05	41.18457
13.3874	1087.73	41.25293
13.3919	1081.68	41.3213
13.3984	1076.8	41.3896
13.4037	1071.34	41.458
13.4093	1072.41	41.5264
13.4145	1077.74	41.5947
13.4208	1081.53	41.6631
13.4263	1082.63	41.7314
13.4319	1088.52	41.7998
13.4374	1093.74	41.8682
13.4422	1087.18	41.9365
13.4492	1082.28	42.0049
13.45411	1080.74	42.0732
13.4609	1072.69	42.1416
13.4663	1071.23	42.21
13.4714	1073.41	42.27832
13.4772	1076.45	42.34668
13.484	1078.51	42.415
13.48967	1085.14	42.4834
13.4955	1090.48	42.5518
13.5008	1087	42.6201
13.5064	1086.96	42.6885
13.5128	1082.43	42.7568
13.5175	1075.89	42.8252
13.5233	1072.97	42.8936
13.5289	1072.54	42.9619
13.5345	1072.09	43.0303
13.5416	1073.97	43.0986
13.54586	1082.64	43.167
13.5526	1087.738	43.2354
13.5571	1087.178	43.3037
13.5635	1089.13	43.37207
13.569	1086.41	43.44043
13.575	1077.176	43.5088
13.5793	1073.86	43.5771
13.5856	1072.86	43.6455
13.5916	1070.29	43.7139
13.5977	1069.5	43.7822
13.6033	1078.97	43.8506
13.6092	1085.23	43.9189
13.6151	1085.46	43.9873
13.6195	1087.84	44.0557
13.6271	1087.61	44.124
13.6321	1080.7	44.1924
13.6375	1078.52	44.2607
13.6427	1075.09	44.3291
13.6501	1070.84	44.3975
13.6534	1067.812	44.46582
13.6606	1074.24	44.53418
13.665	1082.4	44.6025
13.6718	1082.29	44.6709
13.6764	1087.83	44.7393
13.6833	1087.85	44.8076
13.6894	1086.07	44.876
13.6944	1080.93	44.9443
13.7008	1077.82	45.0127
13.7049	1070.29	45.0811
13.7114	1066.51	45.1494
13.71737	1073.01	45.2178
13.7229	1075.15	45.2861
13.728	1079.91	45.3545
13.7334	1084.79	45.4229
13.739	1087.1	45.4912
13.7448	1087.49	45.55957
13.7511	1082.75	45.62793
13.7565	1078.54	45.6963
13.7627	1069.163	45.7646
13.7686	1069.12	45.833
13.7744	1070.12	45.9014
13.7804	1073.16	45.9697
13.7846	1077.01	46.0381
13.7903	1080.7	46.1064
13.7961	1085.18	46.1748
13.8021	1088.76	46.2432
13.8079	1086.09	46.3115
13.8141	1081.04	46.3799
13.819	1074.94	46.4482
13.8262	1068.53	46.5166
13.8316	1070.13	46.585
13.8369	1067.54	46.65332
13.8424	1074.04	46.72168
13.8473	1077.79	46.79
13.8534	1081.22	46.8584
[...]
14.29675	1078.92	52.19043
14.3037	1071.46	52.2588
14.3095	1069.97	52.3271
14.3152	1067.64	52.3955
14.3206	1065.18	52.4639
14.3275	1066	52.5322
14.3321	1072.33	52.6006
14.3379	1078.1	52.6689
14.3442	1080.7	52.7373
14.3481	1083.86	52.8057
14.3558	1080.54	52.874
14.3612	1074.29	52.9424
14.3662	1072.55	53.0107
14.37186	1069.53	53.0791
14.3774	1064.81	53.1475
14.3831	1064.078	53.21582
14.3893	1068.75	53.28418
14.3946	1075.7	53.3525
14.3999	1076.5	53.4209
14.4062	1081.647	53.4893
14.4118	1082.62	53.5576
14.4194	1078.02	53.626
14.4231	1076.31	53.6943
14.4289	1071.115	53.7627
14.435	1064.52	53.8311
14.44	1061.07	53.8994
14.4459	1068.1	53.9678
14.4516	1071.64	54.0361
14.4567	1073.18	54.1045
14.46316	1079.74	54.1729
14.4685	1083.13	54.2412
14.4749	1080	54.30957
14.4803	1078.2	54.37793
14.48613	1075.39	54.4463
14.4911	1067.109	54.5146
14.4978	1062.69	54.583
14.5032	1064.39	54.6514
14.5084	1068.2	54.7197
14.5136	1070.75	54.7881
14.5188	1077.62	54.8564
14.5266	1081.28	54.9248
14.5321	1081.94	54.9932
14.5372	1079.64	55.0615
14.5438	1076.77	55.1299
14.54845	1070.24	55.1982
14.5542	1063.35	55.2666
14.5604	1065.01	55.335
14.5661	1067.35	55.40332
14.5711	1064.84	55.47168
14.5774	1071.734	55.54
14.583	1077.67	55.6084
14.5884	1081.48	55.6768
14.5948	1079.42	55.7451
14.5999	1078.83	55.8135
14.6057	1072.52	55.8818
14.6122	1065.53	55.9502
14.6159	1064.35	56.0186
14.6222	1063.53	56.0869
14.6276	1063.11	56.1553
14.6339	1068.28	56.2236
14.6391	1072.54	56.292
14.6454	1078.67	56.3604
14.652	1080.21	56.4287
14.6572	1080.1	56.49707
14.6626	1073.11	56.56543
14.6682	1068.937	56.6338
14.6737	1066.91	56.7021
14.6807	1062.4	56.7705
14.6854	1063.73	56.8389
14.68972	1064.35	56.9072
14.697	1070.01	56.9756
14.7023	1076.02	57.0439
14.7084	1079.65	57.1123
14.7139	1079.64	57.1807
14.7197	1076.9	57.249
14.7245	1071.15	57.3174
14.7318	1067.74	57.3857
14.7367	1063.36	57.4541
14.742	1061.66	57.5225
14.74738	1062.75	57.59082
14.7535	1066.11	57.65918
14.7598	1071.16	57.7275
14.76434	1076.98	57.7959
14.7705	1077.63	57.8643
14.7761	1076.42	57.9326
14.782	1075.923	58.001
14.7875	1073.04	58.0693
14.7936	1064.34	58.1377
14.799	1063.23	58.2061
14.8046	1062.12	58.2744
14.8109	1061.297	58.3428
14.8168	1067.896	58.4111
14.8228	1074.81	58.4795
14.8277	1074.02	58.5479
14.8351	1076.7	58.6162
14.8397	1079.83	58.68457
14.8446	1074.43	58.75293
14.8516	1066.19	58.8213
14.8559	1063.692	58.8896
14.8614	1061	58.958
14.8675	1059.19	59.0264
14.87384	1063.85	59.0947
14.879	1071.7	59.1631
14.8841	1072.29	59.2314
14.89043	1073.19	59.2998
14.8954	1078.02	59.3682
14.9013	1077.2	59.4365
14.9077	1068.63	59.5049
14.91368	1067.6	59.5732
14.9177	1063.58	59.6416
14.9242	1059.13	59.71
14.9298	1062.16	59.77832
14.9362	1064.99	59.84668
14.9414	1066.35	59.915
14.9464	1070.61	59.9834
14.9504	1065.15	60.0127

Data Header:			0.254_solid_dimension_typei_4545_r0			Time:	64.498	s	4/14/2019 4:50:21 AM
Data Acquisition:	Timed
Station Name:	ft40.cfg
Test File Name:	monotonic_0.2540_typei_solid_4545_dimension.tst
Displacement	Force	Running Time
mm	N	s
14.9502	1060.03	60.0225
14.9509	1070.61	60.042
14.9532	1074.67	60.0615
14.9553	1059.74	60.0811
14.9575	1066.73	60.1006
14.9584	1076.969	60.1201
14.9605	1060.99	60.1396
14.9625	1062.97	60.15918
14.9639	1077.98	60.1787
14.9648	1067.04	60.1982
14.9663	1059.98	60.2178
14.9686	1074.33	60.2373
14.9694	1068.18	60.2568
14.9719	1059.74	60.2764
14.9736	1075.67	60.2959
14.9742	1070.11	60.31543
14.9772	1059.82	60.335
14.9783	1067.86	60.3545
14.97951	1075.3	60.374
14.9814	1060.51	60.3936
14.9836	1066.87	60.4131
14.9849	1073.19	60.4326
14.9861	1064.97	60.4521
14.9878	1063.41	60.47168
14.9886	1075.27	60.4912
14.9907	1064.93	60.5107
14.9923	1064.39	60.5303
14.9952	1071.31	60.5498
14.9959	1070.52	60.5693
14.9977	1057.95	60.5889
14.9997	1072.86	60.6084
15.0008	1072.18	60.62793
15.0028	1060	60.6475
15.0045	1065.71	60.667
15.0062	1073.75	60.6865
15.0073	1060.35	60.7061
15.0086	1065.64	60.7256
15.0108	1075.02	60.7451
15.0118	1061.34	60.7646
15.01495	1060.32	60.78418
15.0148	1076.51	60.8037
15.0174	1063.281	60.8232
15.019	1057.99	60.8428
15.021	1074.6	60.8623
15.0221	1068.52	60.8818
15.0238	1057.03	60.9014
15.0249	1070.11	60.9209
15.02708	1069.77	60.94043
15.0277	1057.92	60.96
15.0303	1071.49	60.9795
15.0313	1069.85	60.999
15.0342	1057.7	61.0186
15.0355	1065	61.0381
15.037	1074.87	61.0576
15.0385	1059.1	61.0771
15.039	1061.99	61.09668
15.0426	1070.25	61.1162
15.0439	1064.54	61.1357
15.0456	1057.579	61.1553
15.046	1070.65	61.1748
15.0479	1065.85	61.1943
15.05	1058.14	61.2139
15.05102	1068.65	61.2334
15.0523	1068.98	61.25293
15.0546	1052.9	61.2725
15.056	1065.5	61.292
15.0583	1072.04	61.3115
15.0603	1056.19	61.3311
15.0626	1059.47	61.3506
15.0625	1072.88	61.3701
15.0638	1056.9	61.3896
15.0655	1058.86	61.40918
15.0677	1071.5	61.4287
15.0691	1059.73	61.4482
15.07081	1053.51	61.4678
15.073	1069.07	61.4873
15.0737	1064.43	61.5068
15.0767	1051.618	61.5264
15.077	1068.26	61.5459
15.07964	1063.632	61.56543
15.0805	1053.77	61.585
15.0824	1062.01	61.6045
15.0841	1065.96	61.624
15.0853	1051.78	61.6436
15.0868	1055.32	61.6631
15.096	6.40938	61.6826
15.0956	-36.3911	61.7021
15.0962	-49.5508	61.72168
15.0955	-30.3242	61.7412
15.09746	-40.5211	61.7607
15.0993	-47.6045	61.7803
15.10161	-33.2046	61.7998
15.1027	-35.24622	61.8193
15.1026	-50.85973	61.8389
15.1048	-34.6437	61.8584
15.1066	-34.17234	61.87793
15.1077	-49.3851	61.8975
15.1097	-39.7721	61.917
15.1119	-28.0023	61.9365
15.1129	-49.9053	61.9561
15.1137	-44.0924	61.9756
15.1159	-28.77	61.9951
15.1179	-44.8727	62.0146
15.1198	-46.9821	62.03418
15.1208	-30.1162	62.0537
15.1221	-40.2569	62.0732
15.123	-48.3652	62.0928
15.1249	-30.4321	62.1123
15.127	-38.9487	62.1318
15.1283	-50.81218	62.1514
15.1302	-34.9954	62.1709
15.1317	-34.4058	62.19043
15.133	-49.5958	62.21
15.1354	-38.1252	62.2295
15.1362	-34.7744	62.249
15.1384	-45.5892	62.2686
15.14	-42.0384	62.2881
15.1406	-30.8878	62.3076
15.1429	-45.1614	62.3271
15.1447	-42.8241	62.34668
15.1467	-33.8642	62.3662
15.1476	-40.1966	62.3857
15.149	-48.6401	62.4053
15.1517	-32.0525	62.4248
15.1528	-37.1017	62.4443
15.1545	-46.7241	62.4639
15.1575	-39.1164	62.4834
15.1575	-33.5675	62.50293
15.1593	-48.7045	62.5225
15.1614	-38.7021	62.542
15.1623	-32.5343	62.5615
15.1646	-46.2426	62.5811
15.1655	-45.0199	62.6006
15.1674	-29.9701	62.6201
15.1683	-46.2084	62.6396
15.1708	-46.8807	62.65918
15.1718	-30.9726	62.6787
15.1745	-42.2146	62.6982
15.1756	-49.1712	62.7178
15.1768	-34.3629	62.7373
15.1788	-38.41814	62.7568
15.18	-49.5361	62.7764
15.1818	-33.0545	62.7959
15.184	-37.6762	62.81543
15.1862	-48.6303	62.835
15.1869	-39.4686	62.8545
15.1887	-32.5268	62.874
15.1903	-47.94619	62.8936
15.1914	-41.2073	62.9131
15.194	-34.2827	62.9326
15.1949	-43.368	62.9521
15.1967	-45.6476	62.97168
15.1992	-31.71678	62.9912
15.2006	-41.6776	63.0107
15.2013	-46.1193	63.0303
15.204	-35.6268	63.0498
15.2053	-35.4804	63.0693
15.2069	-50.6255	63.0889
15.20919	-35.1097	63.1084
15.2101	-35.4323	63.12793
15.2112	-46.97	63.1475
15.214	-42.8003	63.167
15.215	-33.1731	63.1865
15.2166	-48.2178	63.2061
15.2169	-41.0835	63.2256
15.21912	-31.1875	63.2451
15.2215	-45.631	63.2646
15.2229	-46.7986	63.28418
15.2241	-31.4552	63.3037
15.2257	-43.441	63.3232
15.2272	-48.3221	63.3428
15.2295	-33.80373	63.3623
15.2297	-39.9137	63.3818
15.2324	-49.3553	63.4014
15.23351	-36.8923	63.4209
15.2358	-36.10619	63.44043
15.2383	-50.4764	63.46
15.2395	-36.0002	63.4795
15.2405	-35.1117	63.499
15.2425	-47.2904	63.5186
15.244	-42.90015	63.5381
15.245	-32.2319	63.5576
15.2473	-45.28344	63.5771
15.2489	-44.58	63.59668
15.25	-35.8003	63.6162
15.2514	-39.0069	63.6357
15.2551	-47.4724	63.6553
15.2542	-33.6951	63.6748
15.2569	-39.6752	63.6943
15.2584	-47.4771	63.7139
15.2599	-37.9218	63.7334
15.2609	-32.8116	63.75293
15.263	-51.3861	63.7725
15.2645	-37.4637	63.792
15.2676	-33.00267	63.8115
15.26848	-46.1058	63.8311
15.2699	-45.2851	63.8506
15.272	-32.1547	63.8701
15.2726	-45.9596	63.8896
15.2748	-45.13718	63.90918
15.2773	-29.5801	63.9287
15.2774	-43.2492	63.9482
15.2792	-48.2965	63.9678
15.2817	-32.3981	63.9873
15.2829	-40.6844	64.0068
15.2845	-50.1755	64.0264
15.2853	-36.4928	64.0459
15.2887	-37.7888	64.06543
15.2899	-48.4913	64.085
15.2912	-38.3321	64.1045
15.2928	-34.6895	64.124
15.2952	-48.894	64.1436
15.2958	-40.00544	64.1631
15.2974	-33.5205	64.1826
15.2991	-46.7993	64.2021
15.3001	-45.6399	64.22168
15.302	-31.7784	64.2412
15.305	-42.8154	64.2607
15.3053	-46.0498	64.2803
15.3076	-38.0014	64.2998
15.309	-37.1758	64.3193
15.3104	-48.8453	64.3389
15.3137	-35.9043	64.3584
15.3137	-37.0106	64.37793
15.3156	-49.1159	64.3975
15.3168	-41.3411	64.417
15.3187	-32.0739	64.4365
15.3199	-50.3544	64.4561
15.3224	-43.7556	64.4756
15.3228	-34.0295	64.4854