File: data/processed_data_files/tensile/0.254_hd_uprint_typei_090_r(6).dat
MTS793|BTW|ENU|1|2|.|/|:|1|0|0|A

Data Header:			0.254_hd_uprint_typei_090_r0			Time:	20.0188	s	4/15/2019 4:00:09 PM
Data Acquisition:	Timed
Station Name:	ft40.cfg
Test File Name:	monotonic_0.2540_typei_hd_090_uprint.tst
Displacement	Force	Running Time
mm	N	s
9.98039	-125.7766	0.0227051
9.98044	-121.806	0.0910645
9.985754	-116.819	0.159424
9.99204	-118.059	0.2277832
9.99732	-118.913	0.296143
10.0037	-117.113	0.364502
10.0086	-116.796	0.432861
10.01523	-116.463	0.5012207
10.0206	-112.865	0.56958
10.0264	-110.711	0.637939
10.0322	-106.201	0.706299
10.03721	-99.0894	0.7746582
10.04411	-94.8839	0.843018
10.0492	-93.0981	0.911377
10.0538	-92.7145	0.979736
10.0612	-93.5665	1.0481
10.0661	-91.8565	1.11646
10.072	-92.1824	1.18481
10.077	-90.8951	1.25317
10.0831	-88.1371	1.32153
10.0889	-83.1462	1.38989
10.095	-74.7711	1.458252
10.1004	-71.9307	1.52661
10.1071	-68.2209	1.59497
10.112	-66.5192	1.66333
10.1181	-67.5007	1.73169
10.123	-66.3888	1.80005
10.1291	-65.2583	1.86841
10.1352	-66.325	1.93677
10.1401	-63.4864	2.005127
10.1459	-55.9694	2.07349
10.1516	-50.4806	2.14185
10.15624	-46.477	2.21021
10.1628	-41.3854	2.27856
10.1687	-37.5965	2.34692
10.17454	-38.7989	2.41528
10.1799	-35.3489	2.48364
10.1869	-36.942	2.552002
10.19133	-38.0846	2.62036
10.1979	-37.5386	2.68872
10.2023	-28.462	2.75708
10.2086	-23.1688	2.82544
10.2145	-18.6701	2.8938
10.2203	-12.925	2.96216
10.2245	-9.40784	3.03052
10.23102	-7.88721	3.098877
10.2368	-7.46396	3.16724
10.242	-4.36675	3.2356
10.2494	-10.7074	3.30396
10.2552	-9.56824	3.37231
10.2598	-0.1228651	3.44067
10.2651	5.30444	3.50903
10.2705	7.35215	3.57739
10.2769	15.6242	3.645752
10.2835	20.9823	3.71411
10.2883	22.1189	3.78247
10.29402	24.5104	3.85083
10.30014	27.0566	3.91919
10.3059	25.15929	3.98755
10.3121	21.7393	4.05591
10.3178	30.38077	4.12427
10.3221	35.1163	4.192627
10.3278	38.4733	4.26099
10.3334	45.8372	4.32935
10.3392	50.93795	4.39771
10.3455	54.7646	4.46606
10.3508	59.0703	4.53442
10.3569	58.2106	4.60278
10.3622	58.6791	4.67114
10.3687	56.59351	4.739502
10.3732	63.2703	4.80786
10.3799	66.1849	4.87622
10.385	70.0459	4.94458
10.3916	76.5458	5.01294
10.3959	80.8013	5.0813
10.402	85.5014	5.14966
10.4077	90.8673	5.21802
10.4142	92.2239	5.286377
10.4194	91.4166	5.35474
10.4249	91.46553	5.4231
10.4305	95.4801	5.49146
10.43605	96.6762	5.55981
10.4415	101.272	5.62817
10.449	104.382	5.69653
10.4523	110.848	5.76489
10.4595	118.939	5.833252
10.4655	122.137	5.90161
10.4706	125.739	5.96997
10.4764	126.881	6.03833
10.4808	128.572	6.10669
10.48776	130.07	6.17505
10.4923	131.386	6.24341
10.4987	134.872	6.31177
10.5043	138.211	6.380127
10.5109	142.773	6.44849
10.5167	149.587	6.51685
10.5222	154.132	6.58521
10.528	155.205	6.65356
10.5335	157.855	6.72192
10.5392	161.697	6.79028
10.5453	164.972	6.85864
10.5504	164.44	6.927002
10.5556	167.462	6.99536
10.561	170.031	7.06372
10.5668	172.067	7.13208
10.57273	180.6768	7.20044
10.578	186.71	7.2688
10.5842	189.229	7.33716
10.589	190.319	7.40552
10.5966	198.722	7.473877
10.6015	199.3416	7.54224
10.6074	196.999	7.6106
10.6135	202.383	7.67896
10.6182	203.069	7.74731
10.62433	205.002	7.81567
10.62953	212.594	7.88403
10.6353	218.335	7.95239
10.6412	218.075	8.020752
10.6457	222.5629	8.08911
10.6533	232.406	8.15747
10.6594	234.291	8.22583
10.6648	232.444	8.29419
10.6691	234.922	8.36255
10.6754	236.087	8.43091
10.68171	236.866	8.49927
10.6877	241.858	8.567627
10.6928	247.928	8.63599
10.6977	251.992	8.70435
10.7043	255.9796	8.77271
10.70971	265.346	8.84106
10.7154	268.094	8.90942
10.7201	268.183	8.97778
10.7267	271.415	9.04614
10.7326	269.91	9.114502
10.7374	270.91	9.18286
10.7435	275.983	9.25122
10.7506	280.111	9.31958
10.7547	280.9097	9.38794
10.7605	287.757	9.4563
10.766	297.999	9.52466
10.7722	301.406	9.59302
10.7782	304.404	9.661377
10.7852	304.684	9.72974
10.7898	304.364	9.7981
10.7953	305.125	9.86646
10.8003	307.9502	9.93481
10.8069	309.5137	10.0032
10.8119	312.909	10.0715
10.8187	319.928	10.1399
10.8235	328.522	10.2083
10.8289	334.029	10.2766
10.8352	337.382	10.345
10.8413	337.819	10.41333
10.8466	339.326	10.4817
10.8527	340.51	10.55
10.8575	340.495	10.6184
10.8627	341.276	10.6868
10.8696	344.812	10.7551
10.8756	350.4072	10.8235
10.88	359.87	10.8918
10.8867	362.711	10.9602
10.8923	369.892	11.0286
10.8983	371.425	11.0969
10.90317	372.64	11.1653
10.9096	374.034	11.2336
10.9145	374.975	11.302
10.92	372.1	11.3704
10.9266	374.385	11.4387
10.9323	381.149	11.50708
10.9372	388.478	11.5754
10.9433	393.9917	11.6438
10.9494	400.669	11.7122
10.9545	404.353	11.7805
10.9617	404.581	11.8489
10.9667	407.346	11.9172
10.9714	408.968	11.9856
10.9774	404.701	12.054
10.9832	404.671	12.1223
10.9894	413.304	12.1907
10.9935	418.151	12.259
11.0005	423.911	12.3274
11.00596	431.158	12.3958
11.0122	435.44	12.4641
11.0176	438.84	12.5325
11.0236	440.24	12.60083
11.0286	442.109	12.6692
11.0346	437.0498	12.7375
11.0401	436.634	12.8059
11.0457	445.544	12.8743
11.0511	448.984	12.9426
11.0573	450.546	13.011
11.0641	460.752	13.0793
11.0692	466.625	13.1477
11.0741	470.556	13.2161
11.0804	472.435	13.2844
11.0851	474.545	13.3528
11.0921	470.925	13.4211
11.0973	470.468	13.4895
11.1024	477.483	13.5579
11.1085	478.1713	13.6262
11.1144	481.882	13.69458
11.1196	489.65	13.7629
11.1256	494.4613	13.8313
11.131	499.501	13.8997
11.1357	502.596	13.968
11.1425	505.137	14.0364
11.1486	503.846	14.1047
11.1544	504.695	14.1731
11.1599	508.569	14.2415
11.1652	509.973	14.3098
11.1707	511.245	14.3782
11.1768	517.461	14.4465
11.1825	522.205	14.5149
11.1877	529.873	14.5833
11.194	534.313	14.6516
11.2004	534.2627	14.72
11.2055	535.338	14.78833
11.2113	537.258	14.8567
11.2156	538.797	14.925
11.2222	538.996	14.9934
11.2271	542.4826	15.0618
11.2329	543.3158	15.1301
11.23982	549.722	15.1985
11.2448	555.711	15.2668
11.2504	560.578	15.3352
11.256	560.925	15.4036
11.2607	565.398	15.4719
11.2681	567.937	15.5403
11.2738	566.566	15.6086
11.279	567.5	15.677
11.285	570.597	15.7454
11.289	571.757	15.8137
11.2965	575.6922	15.88208
11.3005	582.759	15.9504
11.3068	588.534	16.0188
11.3137	588.4021	16.0872
11.3183	592.92	16.1555
11.32485	600.526	16.2239
11.3308	598.103	16.2922
11.3358	596.238	16.3606
11.3414	600.411	16.429
11.3472	599.4079	16.4973
11.3537	602.745	16.5657
11.35861	607.252	16.634
11.364	613.421	16.7024
11.369	617.483	16.7708
11.3766	620.898	16.8391
11.3818	629.4057	16.9075
11.3881	628.143	16.97583
11.3925	626.92	17.0442
11.3988	630.987	17.1125
11.4048	628.721	17.1809
11.4102	631.227	17.2493
11.4159	637.189	17.3176
11.4216	641.63	17.386
11.428	641.19	17.4543
11.4327	648.148	17.5227
11.4385	657.23	17.5911
11.4441	658.706	17.6594
11.45	656.506	17.7278
11.4567	658.221	17.7961
11.4617	657.794	17.8645
11.467	659.402	17.9329
11.4733	661.088	18.0012
11.4788	664.089	18.06958
11.48366	669.0899	18.1379
11.4908	673.109	18.2063
11.4953	683.594	18.2747
11.5011	686.9151	18.343
11.5075	687.721	18.4114
11.5132	688.043	18.4797
11.51817	687.441	18.5481
11.5233	686.536	18.6165
11.53	687.249	18.6848
11.5356	688.798	18.7532
11.541	694.5036	18.8215
11.5469	700.046	18.8899
11.5523	709.185	18.9583
11.559	712.169	19.0266
11.565	715.1073	19.095
11.5696	714.5658	19.16333
11.57537	715.595	19.2317
11.5807	715.128	19.3
11.5872	717.046	19.3684
11.5916	713.848	19.4368
11.5983	718.409	19.5051
11.6041	723.011	19.5735
11.6094	731.259	19.6418
11.61508	735.51	19.7102
11.62136	740.121	19.7786
11.6262	740.281	19.8469
11.6328	743.817	19.9153
11.6374	742.091	19.9836
11.6408	743.24	20.0129

Data Header:			0.254_hd_uprint_typei_090_r0			Time:	40.0195	s	4/15/2019 4:00:29 PM
Data Acquisition:	Timed
Station Name:	ft40.cfg
Test File Name:	monotonic_0.2540_typei_hd_090_uprint.tst
Displacement	Force	Running Time
mm	N	s
11.641	744.14	20.0227
11.6464	754.141	20.0911
11.6519	755.436	20.1594
11.6581	752.932	20.2278
11.6632	752.917	20.2961
11.6699	752.572	20.3645
11.6756	753.87	20.4329
11.6812	756.058	20.5012
11.6856	758.644	20.56958
11.6925	762.181	20.6379
11.6984	767.698	20.7063
11.7042	776.478	20.7747
11.7098	777.637	20.843
11.7153	780.541	20.9114
11.7208	779.199	20.9797
11.7267	777.479	21.0481
11.7332	778.868	21.1165
11.7371	778.652	21.1848
11.7432	779.3443	21.2532
11.74979	781.9433	21.3215
11.7553	786.881	21.3899
11.7609	796.2832	21.4583
11.7663	798.045	21.5266
11.7723	803.1944	21.595
11.7783	803.285	21.66333
11.7829	800.264	21.7317
11.79	802.42	21.8
11.795	800.786	21.8684
11.8008	800.497	21.9368
11.8061	801.292	22.0051
11.8117	808.336	22.0735
11.8178	815.924	22.1418
11.8235	820.3172	22.2102
11.82935	823.502	22.2786
11.83434	823.951	22.3469
11.8398	823.68	22.4153
11.8463	821.519	22.4836
11.8518	822.422	22.552
11.8577	817.496	22.6204
11.8632	818.908	22.6887
11.8695	825.906	22.75708
11.874	830.542	22.8254
11.88	832.517	22.8938
11.8858	840.439	22.9622
11.8917	842.848	23.0305
11.8973	841.104	23.0989
11.9038	841.493	23.1672
11.909	840.159	23.2356
11.9147	836.107	23.304
11.9192	836.033	23.3723
11.9257	843.616	23.4407
11.9325	844.774	23.509
11.938	847.356	23.5774
11.9433	854.055	23.6458
11.9483	857.03	23.7141
11.9534	858.271	23.7825
11.9593	858.694	23.85083
11.9656	858.466	23.9192
11.9716	851.2688	23.9875
11.9768	850.502	24.0559
11.9826	855.443	24.1243
11.9891	857.61	24.1926
11.9945	858.286	24.261
11.9999	864.571	24.3293
12.0059	868.457	24.3977
12.0111	869.976	24.4661
12.0166	871.627	24.5344
12.0228	868.858	24.6028
12.0289	864.951	24.6711
12.0347	863.257	24.7395
12.0394	865.756	24.8079
12.0457	865.033	24.8762
12.0508	865.905	24.94458
12.05673	869.517	25.0129
12.0616	874.714	25.0813
12.0692	877.959	25.1497
12.0745	879.6803	25.218
12.0794	875.687	25.2864
12.0849	874.339	25.3547
12.091	871.161	25.4231
12.096	872.287	25.4915
12.10251	869.522	25.5598
12.1083	869.501	25.6282
12.1139	872.368	25.6965
12.11968	875.973	25.7649
12.1254	880.34	25.8333
12.1304	881.366	25.9016
12.1373	878.581	25.97
12.1422	877.798	26.03833
12.148	877.503	26.1067
12.1541	874.225	26.175
12.1605	871.286	26.2434
12.1645	872.35	26.3118
12.1702	872.02	26.3801
12.1768	872.595	26.4485
12.182	877.253	26.5168
12.188	879.389	26.5852
12.193	877.887	26.6536
12.1996	875.697	26.7219
12.2038	877.609	26.7903
12.2108	875.0473	26.8586
12.2157	870.163	26.927
12.2222	870.304	26.9954
12.2269	869.451	27.0637
12.2335	868.867	27.13208
12.2398	872.796	27.2004
12.2452	875.417	27.2688
12.2511	872.839	27.3372
12.2573	873.675	27.4055
12.2624	876.914	27.4739
12.2667	872.5639	27.5422
12.2731	866.586	27.6106
12.279	868.129	27.679
12.2851	864.064	27.7473
12.2905	863.393	27.8157
12.2966	867.12	27.884
12.3025	870.177	27.9524
12.3079	868.88	28.0208
12.3136	868.888	28.0891
12.3185	873.691	28.1575
12.3252	872.252	28.22583
12.3304	865.129	28.2942
12.3353	864.3562	28.3625
12.343	861.484	28.4309
12.3463	859.946	28.4993
12.353	859.394	28.5676
12.3583	862.972	28.636
12.3639	861.251	28.7043
12.37002	863.022	28.7727
12.3758	868.239	28.8411
12.38188	868.806	28.9094
12.3875	865.719	28.9778
12.39326	861.936	29.0461
12.39952	858.294	29.1145
12.4053	856.209	29.1829
12.41026	855.16	29.2512
12.4159	856.191	29.31958
12.4216	854.597	29.3879
12.4274	857.846	29.4563
12.4331	863.821	29.5247
12.4391	861.9198	29.593
12.4443	862.879	29.6614
12.4515	860.455	29.7297
12.4557	854.9715	29.7981
12.4621	854.799	29.8665
12.4666	852.5401	29.9348
12.4725	849.236	30.0032
12.478	850.035	30.0715
12.4842	853.1767	30.1399
12.4897	858.16	30.2083
12.4954	859.4	30.2766
12.5014	861.356	30.345
12.50667	859.7442	30.41333
12.51289	853.878	30.4817
12.5181	852.21	30.55
12.5238	851.156	30.6184
12.52934	846.096	30.6868
12.535	846.376	30.7551
12.541	851.506	30.8235
12.5463	855.247	30.8918
12.5526	855.1507	30.9602
12.5592	857.794	31.0286
12.5643	858.918	31.0969
12.5699	853.5238	31.1653
12.5752	851.0011	31.2336
12.5812	849.532	31.302
12.5863	844.975	31.3704
12.5921	840.19	31.4387
12.5983	847.478	31.50708
12.60465	851.352	31.5754
12.6105	851.4245	31.6438
12.615	854.831	31.7122
12.6198	857.7627	31.7805
12.6265	855.4101	31.8489
12.6316	852.6084	31.9172
12.6375	848.8891	31.9856
12.6429	843.025	32.054
12.6504	839.981	32.1223
12.6557	843.245	32.1907
12.6608	847.765	32.259
12.66585	847.259	32.3274
12.6719	850.405	32.3958
12.677	852.682	32.4641
12.6839	852.199	32.5325
12.68916	851.847	32.60083
12.69471	847.532	32.6692
12.7	843.846	32.7375
12.7066	838.492	32.8059
12.7122	840.382	32.8743
12.7172	843.371	32.9426
12.7237	844.266	33.011
12.72908	848.32	33.0793
12.734	850.47	33.1477
12.7411	851.105	33.2161
12.7463	850.817	33.2844
12.7511	849.566	33.3528
12.7592	843.723	33.4211
12.7635	839.955	33.4895
12.7691	840.459	33.5579
12.774	842.879	33.6262
12.7798	841.495	33.69458
12.786	845.887	33.7629
12.791	846.808	33.8313
12.7975	849.2467	33.8997
12.8024	850.875	33.968
12.8089	849.743	34.0364
12.8145	844.042	34.1047
12.821	841.232	34.1731
12.82574	840.794	34.2415
12.8317	839.1972	34.3098
12.8378	840.216	34.3782
12.8414	842.106	34.4465
12.8484	842.748	34.5149
12.8545	847.1	34.5833
12.8603	849.92	34.6516
12.8665	848.3667	34.72
12.8725	844.589	34.78833
12.8768	842.4	34.8567
12.8832	843.245	34.925
12.8884	837.894	34.9934
12.8937	838.042	35.0618
12.8999	839.911	35.1301
12.9051	840.998	35.1985
12.9118	843.655	35.2668
12.9174	848.078	35.3352
12.9228	845.961	35.4036
12.9269	843.0603	35.4719
12.9347	843.013	35.5403
12.9393	845.388	35.6086
12.9458	837.924	35.677
12.95133	835.5824	35.7454
12.957	839.6109	35.8137
12.9634	836.7085	35.88208
12.9688	838.358	35.9504
12.974	845.835	36.0188
12.9792	845.323	36.0872
12.9858	842.78	36.1555
12.9911	842.001	36.2239
12.9974	845.293	36.2922
13.0026	839.886	36.3606
13.0092	837.01	36.429
13.014	836.946	36.4973
13.0195	836.489	36.5657
13.0237	836.731	36.634
13.031	840.837	36.7024
13.0373	841.989	36.7708
13.0414	841.485	36.8391
13.0471	843.41	36.9075
13.0539	845.698	36.97583
13.0597	841.921	37.0442
13.0659	837.971	37.1125
13.0733	836.076	37.1809
13.0753	834.296	37.2493
13.082	835.114	37.3176
13.0879	837.204	37.386
13.0934	839.604	37.4543
13.0986	840.685	37.5227
13.1044	842.037	37.5911
13.111	844.092	37.6594
13.11624	841.297	37.7278
13.1216	839.655	37.7961
13.1272	835.185	37.8645
13.1328	833.3327	37.9329
13.1391	835.196	38.0012
13.145	834.432	38.06958
13.1505	835.02	38.1379
13.15743	836.239	38.2063
13.1627	841.4696	38.2747
13.1671	845.33	38.343
13.1731	842.529	38.4114
13.17872	840.906	38.4797
13.1851	836.496	38.5481
13.1918	832.741	38.6165
13.1968	831.544	38.6848
13.20172	832.44	38.7532
13.2079	831.025	38.8215
13.2138	833.336	38.8899
13.2188	840.477	38.9583
13.2254	842.394	39.0266
13.2308	840.85	39.095
13.236	841.487	39.16333
13.2413	837.384	39.2317
13.247	832.808	39.3
13.2535	831.008	39.3684
13.2585	830.3042	39.4368
13.2657	829.446	39.5051
13.2703	830.06	39.5735
13.2766	838.183	39.6418
13.2816	839.059	39.7102
13.2872	839.375	39.7786
13.2929	842.38	39.8469
13.2982	838.044	39.9153
13.3042	833.857	39.9836
13.307	832.167	40.0129

Data Header:			0.254_hd_uprint_typei_090_r0			Time:	43.4502	s	4/15/2019 4:00:33 PM
Data Acquisition:	Timed
Station Name:	ft40.cfg
Test File Name:	monotonic_0.2540_typei_hd_090_uprint.tst
Displacement	Force	Running Time
mm	N	s
13.3076	835.2	40.0227
13.30842	837.61	40.0422
13.3109	827.306	40.0618
13.3129	836.418	40.0813
13.31459	838.486	40.10083
13.3159	831.066	40.1204
13.3188	830.785	40.1399
13.31881	839.626	40.1594
13.3201	828.242	40.179
13.323	832.9198	40.1985
13.3237	838.103	40.218
13.3256	831.157	40.2375
13.327	825.498	40.25708
13.3288	839.472	40.2766
13.3302	835.214	40.2961
13.332	829.198	40.3157
13.3335	836.855	40.3352
13.3357	833.158	40.3547
13.3363	825.419	40.3743
13.3384	836.043	40.3938
13.3401	837.957	40.41333
13.3411	826.454	40.4329
13.3438	834.718	40.4524
13.3449	837.219	40.4719
13.34671	828.155	40.4915
13.3479	830.461	40.511
13.3507	839.311	40.5305
13.3512	831.304	40.55
13.3535	830.667	40.56958
13.3547	833.343	40.5891
13.3567	832.607	40.6086
13.3585	826.629	40.6282
13.3603	837.778	40.6477
13.3612	834.109	40.6672
13.3643	826.362	40.6868
13.36521	828.388	40.7063
13.366	836.62	40.72583
13.3672	826.179	40.7454
13.36892	832.744	40.7649
13.3706	834.668	40.7844
13.374	828.8031	40.804
13.3737	826.544	40.8235
13.3762	838.168	40.843
13.3777	827.654	40.8625
13.38019	826.687	40.88208
13.3803	835.446	40.9016
13.3832	829.058	40.9211
13.3845	818.81	40.9407
13.3859	832.505	40.9602
13.3869	830.2995	40.9797
13.3886	820.734	40.9993
13.3969	3.08957	41.0188
13.3969	-45.4358	41.03833
13.3962	-52.4156	41.0579
13.3972	-45.1202	41.0774
13.3981	-43.1288	41.0969
13.4002	-54.7551	41.1165
13.4015	-49.1194	41.136
13.4023	-44.3677	41.1555
13.4041	-52.4949	41.175
13.4063	-52.77306	41.19458
13.407	-45.0048	41.2141
13.4103	-48.49	41.2336
13.4113	-51.4724	41.2532
13.4121	-48.4786	41.2727
13.4138	-48.0354	41.2922
13.4166	-54.7091	41.3118
13.41761	-43.6993	41.3313
13.4191	-44.4363	41.35083
13.4207	-51.5683	41.3704
13.4226	-52.8233	41.3899
13.4239	-41.951	41.4094
13.42589	-54.1119	41.429
13.4268	-48.9555	41.4485
13.4283	-43.5278	41.468
13.43063	-47.8932	41.4875
13.4331	-55.2071	41.50708
13.4343	-41.5467	41.5266
13.4339	-48.436	41.5461
13.4365	-53.5579	41.5657
13.4383	-42.5348	41.5852
13.4404	-45.6712	41.6047
13.4417	-56.1814	41.6243
13.443	-45.7736	41.6438
13.4449	-43.7011	41.66333
13.4466	-50.4501	41.6829
13.4473	-48.1982	41.7024
13.44924	-45.7167	41.7219
13.45188	-54.5099	41.7415
13.45289	-49.9425	41.761
13.4542	-40.2886	41.7805
13.4563	-51.11919	41.8
13.4572	-52.4088	41.81958
13.4591	-46.8	41.8391
13.4603	-47.3824	41.8586
13.4623	-52.7099	41.8782
13.4646	-43.9634	41.8977
13.4657	-44.9554	41.9172
13.4676	-51.8294	41.9368
13.4692	-47.4492	41.9563
13.46964	-45.3241	41.97583
13.4721	-55.3675	41.9954
13.473	-47.9504	42.0149
13.476	-44.2316	42.0344
13.4781	-50.7902	42.054
13.47852	-54.5395	42.0735
13.481	-41.5813	42.093
13.4814	-49.4371	42.1125
13.4839	-50.3637	42.13208
13.4848	-43.2154	42.1516
13.4865	-47.7095	42.1711
13.4887	-56.0595	42.1907
13.4904	-42.8915	42.2102
13.4921	-48.2152	42.2297
13.4939	-54.4628	42.2493
13.4955	-45.9639	42.2688
13.4963	-46.0927	42.28833
13.499	-56.0185	42.3079
13.5004	-48.5925	42.3274
13.50121	-43.8855	42.3469
13.5032	-51.4196	42.3665
13.50574	-49.2773	42.386
13.5057	-45.84547	42.4055
13.5082	-53.4203	42.425
13.5099	-51.5765	42.44458
13.5114	-42.7658	42.4641
13.5124	-47.7304	42.4836
13.5152	-52.6502	42.5032
13.5153	-47.9992	42.5227
13.5182	-47.9444	42.5422
13.5185	-52.7512	42.5618
13.5211	-45.4821	42.5813
13.5233	-46.3804	42.60083
13.5239	-52.374	42.6204
13.5272	-52.7273	42.6399
13.5269	-42.003	42.6594
13.5292	-54.5951	42.679
13.5308	-49.1454	42.6985
13.5328	-41.9622	42.718
13.5339	-49.8059	42.7375
13.5358	-55.4089	42.75708
13.53775	-42.9723	42.7766
13.5392	-48.371	42.7961
13.5418	-50.9779	42.8157
13.5433	-44.3272	42.8352
13.5438	-46.4334	42.8547
13.5475	-56.5554	42.8743
13.54659	-45.0215	42.8938
13.5499	-43.83	42.91333
13.5501	-51.078	42.9329
13.5524	-48.30349	42.9524
13.5531	-44.4242	42.9719
13.555	-52.4933	42.9915
13.5572	-51.1398	43.011
13.5589	-43.9724	43.0305
13.5596	-50.7466	43.05
13.5623	-51.0606	43.06958
13.5636	-46.8225	43.0891
13.5653	-50.0096	43.1086
13.5663	-53.5416	43.1282
13.569	-42.8351	43.1477
13.57	-46.0102	43.1672
13.5714	-52.9025	43.1868
13.5734	-51.1541	43.2063
13.5744	-44.96035	43.22583
13.5767	-52.7868	43.2454
13.5787	-46.8389	43.2649
13.5798	-44.5071	43.2844
13.5815	-51.5146	43.304
13.5832	-52.8679	43.3235
13.5852	-40.9617	43.343
13.5861	-50.8669	43.3625
13.5878	-52.6042	43.38208
13.5904	-43.7378	43.4016
13.59141	-48.4161	43.4211
13.5936	-55.7946	43.4407