File: data/processed_data_files/tensile/0.254_solid_dimension_typei_090_r(3).dat
MTS793|BTW|ENU|1|2|.|/|:|1|0|0|A

Data Header:			0.254_solid_dimension_typei_090_r0			Time:	20.0317	s	4/15/2019 2:18:52 PM
Data Acquisition:	Timed
Station Name:	ft40.cfg
Test File Name:	monotonic_0.2540_typei_solid_090_dimension.tst
Displacement	Force	Running Time
mm	N	s
9.97135	-115.313	0.0356445
9.97349	-115.556	0.104004
9.98027	-113.016	0.172363
9.98449	-107.303	0.240723
9.98951	-104.135	0.309082
9.99738	-97.6905	0.377441
10.0022	-87.0101	0.445801
10.0089	-82.4775	0.51416
10.01394	-78.5821	0.58252
10.0197	-74.4462	0.650879
10.0256	-73.45015	0.719238
10.0305	-73.1976	0.787598
10.0357	-70.5952	0.855957
10.0422	-68.3341	0.924316
10.0485	-63.9992	0.992676
10.0533	-57.8322	1.06104
10.0582	-48.4421	1.12939
10.0657	-41.8579	1.19775
10.0707	-38.4272	1.26611
10.076	-34.3014	1.33447
10.082	-33.1844	1.402832
10.0871	-29.7814	1.47119
10.0938	-29.3487	1.53955
10.0993	-26.2516	1.60791
10.1048	-23.587	1.67627
10.1102	-17.179	1.74463
10.11598	-10.664	1.81299
10.1215	-2.97871	1.88135
10.1266	4.44622	1.949707
10.1329	6.92048	2.01807
10.1382	10.4881	2.08643
10.144	14.4391	2.15479
10.1506	13.7694	2.22314
10.1559	11.84692	2.2915
10.1613	16.6218	2.35986
10.1672	24.96497	2.42822
10.1725	28.7051	2.496582
10.178	37.6573	2.56494
10.1843	44.5437	2.6333
10.1905	47.457	2.70166
10.196	53.3438	2.77002
10.2015	56.7014	2.83838
10.2063	58.2974	2.90674
10.2123	55.3246	2.9751
10.2175	59.2765	3.043457
10.2232	66.1672	3.11182
10.23	68.1777	3.18018
10.2356	77.3394	3.24854
10.2412	86.3488	3.31689
10.2479	89.2907	3.38525
10.2528	96.1765	3.45361
10.2583	100.9	3.52197
10.2637	100.168	3.590332
10.2695	97.7661	3.65869
10.276	103.229	3.72705
10.2828	107.601	3.79541
10.2861	109.852	3.86377
10.2937	116.791	3.93213
10.2977	124.845	4.00049
10.3039	129.986	4.06885
10.3097	136.1723	4.137207
10.3155	144.106	4.20557
10.3211	144.394	4.27393
10.3259	142.585	4.34229
10.3319	147.115	4.41064
10.338	151.084	4.479
10.3433	151.929	4.54736
10.3496	156.517	4.61572
10.3569	165.361	4.684082
10.3616	170.26	4.75244
10.3666	178.165	4.8208
10.3729	184.435	4.88916
10.3778	186.3	4.95752
10.38366	186.638	5.02588
10.3899	190.649	5.09424
10.3953	194.408	5.1626
10.4008	193.891	5.230957
10.4063	195.575	5.29932
10.4113	204.07	5.36768
10.4179	210.1609	5.43604
10.42476	216.161	5.50439
10.4301	225.353	5.57275
10.4345	225.425	5.64111
10.441	229.409	5.70947
10.4464	235.6554	5.777832
10.4519	235.725	5.84619
10.45764	234.539	5.91455
10.4624	238.208	5.98291
10.4683	242.834	6.05127
10.4755	249.607	6.11963
10.4798	256.125	6.18799
10.48658	262.38	6.25635
10.4918	266.154	6.324707
10.4974	273.371	6.39307
10.504	277.109	6.46143
10.5086	279.197	6.52979
10.5142	279.723	6.59814
10.5206	280.608	6.6665
10.525	283.262	6.73486
10.531	288.581	6.80322
10.5377	295.968	6.871582
10.5434	300.314	6.93994
10.5491	306.249	7.0083
10.5542	315.207	7.07666
10.5599	320.579	7.14502
10.5662	320.405	7.21338
10.5723	322.452	7.28174
10.5765	324.059	7.3501
10.5835	323.225	7.418457
10.5886	329.902	7.48682
10.5946	336.101	7.55518
10.60039	337.452	7.62354
10.60576	346.251	7.69189
10.6114	356.431	7.76025
10.6175	360.6496	7.82861
10.6224	362.755	7.89697
10.6276	364.93	7.965332
10.6336	367.47	8.03369
10.6401	364.243	8.10205
10.6456	370.8074	8.17041
10.6509	373.85	8.23877
10.6563	375.569	8.30713
10.6632	382.513	8.37549
10.6683	395.842	8.44385
10.6743	399.788	8.512207
10.67953	404.686	8.58057
10.6852	408.3797	8.64893
10.6915	408.6283	8.71729
10.6965	407.962	8.78564
10.7029	409.522	8.854
10.7081	414.213	8.92236
10.7137	413.544	8.99072
10.72049	420.653	9.059082
10.7254	431.666	9.12744
10.7312	436.745	9.1958
10.7369	444.579	9.26416
10.7444	448.877	9.33252
10.7486	448.565	9.40088
10.7531	449.578	9.46924
10.7595	451.265	9.5376
10.7653	451.737	9.605957
10.7719	452.419	9.67432
10.7763	459.716	9.74268
10.7831	469.5061	9.81104
10.7888	475.136	9.87939
10.79383	480.444	9.94775
10.7986	488.272	10.0161
10.8055	488.987	10.0845
10.8115	491.216	10.1528
10.8169	494.0571	10.2212
10.823	493.413	10.2896
10.8278	491.572	10.35791
10.8344	499.137	10.42627
10.83987	505.49	10.4946
10.8451	512.82	10.563
10.8508	518.456	10.6313
10.8562	526.7915	10.6997
10.86133	531.224	10.7681
10.8674	533.526	10.8364
10.8733	534.852	10.9048
10.8785	534.153	10.9731
10.8839	531.477	11.0415
10.8903	536.656	11.1099
10.8964	544.594	11.1782
10.9019	548.918	11.2466
10.9071	554.54	11.3149
10.91372	561.817	11.3833
10.9196	570.0578	11.45166
10.924	572.169	11.52002
10.9298	575.7345	11.5884
10.93743	571.202	11.6567
10.9406	574.589	11.7251
10.9468	576.258	11.7935
10.9531	578.238	11.8618
10.9593	583.779	11.9302
10.9646	589.537	11.9985
10.97	597.801	12.0669
10.9758	606.425	12.1353
10.9812	611.349	12.2036
10.9869	612.396	12.272
10.994	611.642	12.3403
10.9983	613.263	12.4087
11.0039	615.856	12.4771
11.0103	614.668	12.54541
11.016	619.829	12.61377
11.0218	628.148	12.6821
11.0275	631.292	12.7505
11.0328	641.144	12.8188
11.03756	649.034	12.8872
11.0441	648.253	12.9556
11.0504	651.385	13.0239
11.0559	654.03	13.0923
11.0618	654.423	13.1606
11.0667	652.342	13.229
11.0728	656.716	13.2974
11.0779	661.337	13.3657
11.0854	665.153	13.4341
11.0899	676.055	13.5024
11.0946	684.265	13.5708
11.1016	684.935	13.63916
11.107	687.649	13.70752
11.1132	694.435	13.7759
11.1176	693.303	13.8442
11.1237	690.353	13.9126
11.1298	693.242	13.981
11.136	696.738	14.0493
11.1412	700.925	14.1177
11.1463	709.28	14.186
11.1533	716.856	14.2544
11.1573	720.21	14.3228
11.1644	722.705	14.3911
11.1692	731.042	14.4595
11.1748	730.778	14.5278
11.1808	729.5387	14.5962
11.1878	731.249	14.6646
11.1931	732.196	14.73291
11.1976	736.191	14.80127
11.20337	742.565	14.8696
11.2099	748.321	14.938
11.2161	753.013	15.0063
11.2202	756.513	15.0747
11.2261	766.205	15.1431
11.2325	768.4975	15.2114
11.238	764.437	15.2798
11.2438	767.501	15.3481
11.2498	767.985	15.4165
11.2546	771.644	15.4849
11.2602	774.46	15.5532
11.26709	779.032	15.6216
11.2729	784.962	15.6899
11.2779	791.352	15.7583
11.2831	800.503	15.82666
11.2902	801.364	15.89502
11.2949	802.653	15.9634
11.302	802.394	16.0317
11.3054	802.799	16.1001
11.3124	806.027	16.1685
11.31747	808.266	16.2368
11.3235	810.516	16.3052
11.32884	814.965	16.3735
11.3345	821.845	16.4419
11.3411	830.481	16.5103
11.34608	834.476	16.5786
11.35134	837.2655	16.647
11.3566	835.85	16.7153
11.3633	836.999	16.7837
11.3684	839.396	16.8521
11.3742	839.7915	16.92041
11.3798	839.695	16.98877
11.3857	846.328	17.0571
11.392	852.831	17.1255
11.397	859.514	17.1938
11.4033	863.852	17.2622
11.4084	868.817	17.3306
11.4144	868.566	17.3989
11.4203	870.133	17.4673
11.4256	870.935	17.5356
11.4314	868.578	17.604
11.4374	867.393	17.6724
11.4434	872.194	17.7407
11.4486	882.2489	17.8091
11.4544	885.447	17.8774
11.4599	890.471	17.9458
11.4648	897.395	18.01416
11.471	896.607	18.08252
11.4776	899.124	18.1509
11.4827	900.987	18.2192
11.4883	897.6936	18.2876
11.4935	896.378	18.356
11.5003	899.564	18.4243
11.5058	906.266	18.4927
11.5116	910.031	18.561
11.5167	915.553	18.6294
11.5213	921.318	18.6978
11.5288	925.052	18.7661
11.5342	926.859	18.8345
11.5396	928.238	18.9028
11.5457	924.358	18.9712
11.5512	919.154	19.0396
11.55699	924.003	19.10791
11.5616	928.072	19.17627
11.56763	928.467	19.2446
11.5741	935.089	19.313
11.5799	940.724	19.3813
11.5853	944.511	19.4497
11.5904	948.516	19.5181
11.5959	950.423	19.5864
11.6027	945.86	19.6548
11.6077	942.618	19.7231
11.6142	943.75	19.7915
11.6203	947.9483	19.8599
11.6247	946.688	19.9282
11.6313	952.057	19.9966
11.6333	960.487	20.0259

Data Header:			0.254_solid_dimension_typei_090_r0			Time:	40.03125	s	4/15/2019 2:19:12 PM
Data Acquisition:	Timed
Station Name:	ft40.cfg
Test File Name:	monotonic_0.2540_typei_solid_090_dimension.tst
Displacement	Force	Running Time
mm	N	s
11.6351	955.92	20.0356
11.6399	953.065	20.104
11.646	949.297	20.1724
11.6516	954.527	20.2407
11.6567	961.935	20.3091
11.6624	962.725	20.3774
11.6681	967.845	20.4458
11.67449	974.705	20.51416
11.6798	972.256	20.58252
11.6848	972.662	20.6509
11.6912	974.455	20.7192
11.6969	967.906	20.7876
11.7026	965.317	20.856
11.70813	968.487	20.9243
11.7135	972.4	20.9927
11.7196	973.783	21.061
11.7248	978.062	21.1294
11.7309	982.6817	21.1978
11.73546	985.752	21.2661
11.7422	984.6618	21.3345
11.7484	985.848	21.4028
11.7536	981.2597	21.4712
11.7591	976.056	21.5396
11.7651	977.5636	21.60791
11.7703	982.373	21.67627
11.7766	980.114	21.7446
11.7824	986.064	21.813
11.7888	990.375	21.8813
11.7943	990.962	21.9497
11.7988	992.607	22.0181
11.8053	993.407	22.0864
11.8106	989.099	22.1548
11.8174	984.457	22.2231
11.822	985.649	22.2915
11.827	984.24	22.3599
11.8345	986.454	22.4282
11.8394	986.774	22.4966
11.8457	989.865	22.5649
11.8513	993.533	22.6333
11.8563	996.763	22.70166
11.8627	996.354	22.77002
11.8677	991.482	22.8384
11.8732	988.139	22.9067
11.878	989.544	22.9751
11.8844	986.405	23.0435
11.8909	985.419	23.1118
11.8962	988.648	23.1802
11.9012	989.987	23.2485
11.907	995.283	23.3169
11.9133	996.34	23.3853
11.9179	998.0993	23.4536
11.9243	993.2124	23.522
11.9293	992.617	23.5903
11.93611	991.701	23.6587
11.9421	986.691	23.7271
11.9474	985.003	23.79541
11.9533	986.818	23.86377
11.959	986.208	23.9321
11.9652	991.624	24.0005
11.9698	995.521	24.0688
11.975	994.136	24.1372
11.9814	991.182	24.2056
11.9874	993.033	24.2739
11.9932	990.895	24.3423
11.9987	985.699	24.4106
12.004	983.752	24.479
12.0089	984.6604	24.5474
12.0153	981.6051	24.6157
12.0227	985.1402	24.6841
12.0276	989.534	24.7524
12.0327	990.07	24.8208
12.0376	988.047	24.88916
12.0448	991.397	24.95752
12.0496	992.808	25.0259
12.0558	985.468	25.0942
12.0614	982.511	25.1626
12.0663	982.22	25.231
12.0735	977.881	25.2993
12.0794	982.326	25.3677
12.085	985.832	25.436
12.0896	983.778	25.5044
12.0952	983.634	25.5728
12.1008	987.105	25.6411
12.1064	989.043	25.7095
12.1119	982.746	25.7778
12.1187	980.173	25.8462
12.1235	979.565	25.9146
12.1294	974.553	25.98291
12.136	975.387	26.05127
12.141	977.9137	26.1196
12.1466	978.463	26.188
12.15158	978.1991	26.2563
12.1581	984.094	26.3247
12.1639	987.82	26.3931
12.1697	979.579	26.4614
12.1759	979.7691	26.5298
12.1805	976.909	26.5981
12.1869	974.201	26.6665
12.1925	970.998	26.7349
12.1977	974.588	26.8032
12.204	973.181	26.8716
12.2093	973.461	26.9399
12.21511	979.472	27.0083
12.2209	982.061	27.07666
12.2262	980.373	27.14502
12.2325	977.899	27.2134
12.237	976.126	27.2817
12.245	973.685	27.3501
12.2503	971.349	27.4185
12.2552	969.613	27.4868
12.2597	969.616	27.5552
12.2654	970.677	27.6235
12.2726	975.77	27.6919
12.2772	978.099	27.7603
12.2833	978.388	27.8286
12.2879	977.547	27.897
12.2946	973.995	27.9653
12.3009	971.085	28.0337
12.3063	969.47	28.1021
12.3121	967.084	28.17041
12.3185	964.506	28.23877
12.3235	967.567	28.3071
12.3293	972.578	28.3755
12.3359	973.084	28.4438
12.34076	975.963	28.5122
12.34549	977.811	28.5806
12.352	974.494	28.6489
12.3568	972.435	28.7173
12.3626	970.384	28.7856
12.3688	964.272	28.854
12.3749	962.005	28.9224
12.38016	964.086	28.9907
12.3857	969.217	29.0591
12.3907	968.253	29.1274
12.3969	974.004	29.1958
12.403	975.247	29.26416
12.4083	972.799	29.33252
12.4135	972.6015	29.4009
12.41995	970.863	29.4692
12.4256	964.237	29.5376
12.4313	959.949	29.606
12.4372	961.753	29.6743
12.4425	964.378	29.7427
12.4478	965.381	29.811
12.4545	969.632	29.8794
12.4612	972.9895	29.9478
12.4661	972.044	30.0161
12.47112	972.266	30.0845
12.4772	972.879	30.1528
12.4827	964.586	30.2212
12.4886	959.54	30.2896
12.49407	962.818	30.35791
12.5002	962.958	30.42627
12.5055	963.36	30.4946
12.5123	967.4895	30.563
12.5174	971.01	30.6313
12.5233	972.654	30.6997
12.5279	971.791	30.7681
12.5341	972.275	30.8364
12.54009	965.372	30.9048
12.5457	961.31	30.9731
12.5517	963.53	31.0415
12.5559	962.211	31.1099
12.562	959.3125	31.1782
12.5686	962.737	31.2466
12.57349	967.565	31.3149
12.5796	969.349	31.3833
12.585	969.896	31.45166
12.5907	971.991	31.52002
12.5963	967.0119	31.5884
12.6023	960.8396	31.6567
12.6079	964.157	31.7251
12.6136	962.408	31.7935
12.6201	958.339	31.8618
12.6263	963.062	31.9302
12.6315	963.686	31.9985
12.6368	966.804	32.0669
12.6425	967.884	32.1353
12.6481	971.452	32.2036
12.6539	968.3916	32.272
12.6593	964.835	32.3403
12.6654	964.493	32.4087
12.6706	961.702	32.4771
12.6762	958.521	32.54541
12.682	959.83	32.61377
12.6879	960.881	32.6821
12.6929	964.6087	32.7505
12.6991	969.091	32.8188
12.7051	967.9671	32.8872
12.711	966.764	32.9556
12.7164	967.701	33.0239
12.7225	965.237	33.0923
12.7279	961.802	33.1606
12.7329	959.524	33.229
12.7393	959.463	33.2974
12.745	958.832	33.3657
12.7514	962.269	33.4341
12.7565	966.097	33.5024
12.7618	965.8844	33.5708
12.7686	967.23	33.63916
12.7736	966.461	33.70752
12.7797	969.11	33.7759
12.7841	961.518	33.8442
12.79048	959.281	33.9126
12.7969	960.176	33.981
12.8016	956.083	34.0493
12.8078	960.52	34.1177
12.8136	964.791	34.186
12.8189	965.313	34.2544
12.8252	963.164	34.3228
12.8309	968.237	34.3911
12.83501	970.295	34.4595
12.8417	965.7453	34.5278
12.84738	962.819	34.5962
12.85381	961.68	34.6646
12.8592	956.904	34.73291
12.8633	958.684	34.80127
12.8699	961.0332	34.8696
12.8756	963.1535	34.938
12.882	962.117	35.0063
12.8872	967.674	35.0747
12.8928	969.811	35.1431
12.8982	965.442	35.2114
12.9051	963.623	35.2798
12.9103	962.295	35.3481
12.9144	958.545	35.4165
12.92157	957.605	35.4849
12.9266	961.1203	35.5532
12.93347	960.0719	35.6216
12.9387	958.912	35.6899
12.9436	964.899	35.7583
12.9495	970.2326	35.82666
12.9556	966.8407	35.89502
12.9611	964.317	35.9634
12.96679	962.592	36.0317
12.9726	959.735	36.1001
12.9786	957.376	36.1685
12.9851	959.298	36.2368
12.9897	958.451	36.3052
12.9956	957.843	36.3735
13.0012	962.1994	36.4419
13.0064	967.627	36.5103
13.0125	966.8	36.5786
13.0187	965.095	36.647
13.0241	965.241	36.7153
13.0303	962.149	36.7837
13.0352	958.953	36.8521
13.041	956.938	36.92041
13.0479	955.064	36.98877
13.0518	955.388	37.0571
13.0589	961.457	37.1255
13.0641	965.671	37.1938
13.0693	966.2428	37.2622
13.0747	965.255	37.3306
13.0812	964.154	37.3989
13.0866	962.68	37.4673
13.0926	959.392	37.5356
13.0983	956.412	37.604
13.1042	954.086	37.6724
13.10933	953.789	37.7407
13.1151	959.013	37.8091
13.12156	961.047	37.8774
13.1263	964.177	37.9458
13.1323	966.052	38.01416
13.13922	965.392	38.08252
13.144	964.3847	38.1509
13.1485	962.307	38.2192
13.1546	958.708	38.2876
13.1605	951.672	38.356
13.167	952.894	38.4243
13.1722	956.82	38.4927
13.1788	959.477	38.561
13.184	960.461	38.6294
13.1886	965.9563	38.6978
13.1942	963.484	38.7661
13.20162	963.89	38.8345
13.2061	963.794	38.9028
13.2119	957.1	38.9712
13.2186	950.529	39.0396
13.2231	952.333	39.10791
13.229	956.421	39.17627
13.2341	953.817	39.2446
13.2405	956.687	39.313
13.2464	962.401	39.3813
13.2519	960.803	39.4497
13.2582	959.863	39.5181
13.2627	961.463	39.5864
13.2691	955.0957	39.6548
13.27388	950.103	39.7231
13.2806	948.494	39.7915
13.2866	948.684	39.8599
13.2911	945.941	39.9282
13.297	942.039	39.9966
13.29965	945.48	40.0259

Data Header:			0.254_solid_dimension_typei_090_r0			Time:	42.6016	s	4/15/2019 2:19:14 PM
Data Acquisition:	Timed
Station Name:	ft40.cfg
Test File Name:	monotonic_0.2540_typei_solid_090_dimension.tst
Displacement	Force	Running Time
mm	N	s
13.3057	-48.0084	40.0356
13.3075	-3.07164	40.04541
13.3077	-69.2191	40.0552
13.3068	-39.9709	40.0649
13.3075	-45.016	40.0747
13.3068	-36.0204	40.0845
13.3073	-41.9537	40.0942
13.308	-47.7828	40.104
13.3098	-46.6223	40.11377
13.3088	-46.7353	40.1235
13.3093	-40.6676	40.1333
13.3107	-36.1479	40.1431
13.3123	-39.0667	40.1528
13.3129	-46.0426	40.1626
13.3128	-50.5468	40.1724
13.315	-45.5653	40.1821
13.3149	-39.9891	40.1919
13.3159	-39.3672	40.20166
13.3162	-39.5337	40.2114
13.3173	-42.4956	40.2212
13.3188	-46.8954	40.231
13.319	-50.0023	40.2407
13.31919	-42.5613	40.2505
13.32	-36.8021	40.2603
13.3207	-36.571	40.27002
13.3214	-42.3784	40.2798
13.3239	-48.039	40.2896
13.3235	-48.9358	40.2993
13.3245	-43.0447	40.3091
13.3259	-38.4362	40.3188
13.3256	-38.4738	40.3286
13.3268	-38.328	40.3384
13.32827	-44.3542	40.3481
13.3277	-49.9035	40.35791
13.3293	-46.4091	40.3677
13.3294	-42.1596	40.3774
13.3305	-35.5664	40.3872
13.3306	-38.3364	40.397
13.3323	-46.3874	40.4067
13.3335	-45.756	40.4165
13.3341	-46.7759	40.42627
13.3354	-41.1306	40.436
13.3358	-41.0211	40.4458
13.3363	-37.517	40.4556
13.3367	-39.148	40.4653
13.3379	-48.39	40.4751
13.3388	-47.2112	40.4849
13.33922	-46.8345	40.4946
13.3407	-40.1649	40.5044
13.3419	-36.9699	40.51416
13.3428	-42.1	40.5239
13.34262	-43.9699	40.5337
13.3442	-45.4225	40.5435
13.3444	-47.00034	40.5532
13.3455	-42.6358	40.563
13.34702	-40.8475	40.5728
13.3467	-36.1587	40.58252
13.348	-39.0441	40.5923
13.3491	-46.5899	40.6021
13.3486	-48.5506	40.6118
13.3495	-45.39513	40.6216
13.351	-38.0781	40.6313
13.3515	-38.297	40.6411
13.3517	-39.5483	40.6509
13.3535	-44.1114	40.6606
13.3549	-46.7549	40.67041
13.355	-48.69072	40.6802
13.3558	-44.3228	40.6899
13.35719	-37.5731	40.6997
13.3582	-35.8941	40.7095
13.35809	-41.0568	40.7192
13.3587	-48.4392	40.729
13.359	-49.2849	40.73877
13.3613	-43.6797	40.7485
13.3616	-41.0996	40.7583
13.3623	-34.2287	40.7681
13.3635	-40.1654	40.7778
13.36318	-43.7285	40.7876
13.3645	-49.1822	40.7974
13.36562	-49.0922	40.8071
13.3664	-41.1387	40.8169
13.3663	-36.5762	40.82666
13.3678	-35.9371	40.8364
13.3685	-43.546	40.8462
13.3697	-50.4755	40.856
13.3695	-45.5601	40.8657
13.3719	-44.2985	40.8755
13.3719	-37.9452	40.8853
13.3724	-38.05014	40.89502
13.3733	-41.3462	40.9048
13.3747	-44.4737	40.9146
13.3746	-49.4073	40.9243
13.3762	-46.4772	40.9341
13.3762	-36.7667	40.9438
13.3766	-36.0372	40.9536
13.378	-38.9761	40.9634
13.3793	-46.53941	40.9731
13.3799	-47.7012	40.98291
13.3803	-45.4255	40.9927
13.3814	-41.2312	41.0024
13.3824	-38.0116	41.0122
13.3835	-37.7507	41.022
13.3836	-42.6166	41.0317
13.3846	-48.3551	41.0415
13.385	-47.9719	41.05127
13.3854	-43.8277	41.061
13.3871	-37.2489	41.0708
13.3877	-36.2565	41.0806
13.3881	-42.9797	41.0903
13.3895	-46.2491	41.1001
13.3903	-48.0408	41.1099
13.3918	-43.13	41.1196
13.3926	-41.8941	41.1294
13.3936	-40.1735	41.13916
13.3932	-38.0818	41.1489
13.3951	-45.9058	41.1587
13.3954	-47.1361	41.1685
13.3953	-48.1455	41.1782
13.397	-44.8281	41.188
13.3989	-37.7043	41.1978
13.39814	-43.168	41.20752
13.3998	-42.8944	41.2173
13.4001	-45.1944	41.2271
13.4012	-48.0157	41.2368
13.4012	-45.4339	41.2466
13.4037	-44.34	41.2563
13.4041	-37.4943	41.2661
13.4046	-39.1465	41.2759
13.4054	-45.20071	41.2856
13.4053	-47.7401	41.29541
13.4069	-48.1683	41.3052
13.4075	-42.2143	41.3149
13.408	-39.5495	41.3247
13.4094	-38.65757	41.3345
13.4106	-41.4739	41.3442
13.4111	-46.1242	41.354
13.4122	-49.9182	41.36377
13.4122	-48.6036	41.3735
13.413	-41.1964	41.3833
13.4135	-34.232	41.3931
13.4155	-40.8423	41.4028
13.4159	-48.5449	41.4126
13.41787	-48.6113	41.4224
13.4174	-46.2927	41.4321
13.418	-42.3833	41.4419
13.418	-36.2158	41.45166
13.4195	-38.6691	41.4614
13.4198	-42.8477	41.4712
13.4221	-48.5272	41.481
13.422	-50.2347	41.4907
13.4223	-44.3437	41.5005
13.4245	-37.1061	41.5103
13.4251	-35.8725	41.52002
13.4257	-42.266	41.5298
13.4254	-48.4489	41.5396
13.42725	-47.2073	41.5493
13.4281	-45.6364	41.5591
13.42869	-39.2562	41.5688
13.4289	-39.3756	41.5786
13.4305	-41.1136	41.5884
13.4311	-44.4809	41.5981
13.4322	-52.5251	41.60791
13.4319	-46.441	41.6177
13.4336	-41.951	41.6274
13.4339	-38.0679	41.6372
13.4345	-39.3554	41.647
13.4358	-46.0749	41.6567
13.4363	-47.3226	41.6665
13.43696	-46.4216	41.67627
13.4382	-44.136	41.686
13.4399	-39.1741	41.6958
13.4396	-38.5952	41.7056
13.4413	-38.7994	41.7153
13.4418	-46.9144	41.7251
13.4428	-48.1241	41.7349
13.4437	-46.2176	41.7446
13.44466	-41.5353	41.7544
13.4452	-37.61005	41.76416
13.4454	-39.6368	41.7739
13.4466	-44.8699	41.7837
13.4473	-46.1025	41.7935
13.4486	-46.3753	41.8032
13.4486	-44.1991	41.813
13.4489	-39.763	41.8228
13.4509	-36.335	41.83252
13.45196	-43.354	41.8423
13.4525	-45.6612	41.8521
13.4535	-48.4316	41.8618
13.4537	-45.022	41.8716
13.4557	-40.26495	41.8813
13.45542	-41.1266	41.8911
13.4565	-38.6137	41.9009
13.4573	-43.9494	41.9106
13.4589	-46.0229	41.92041
13.4585	-48.2267	41.9302
13.4593	-45.2221	41.9399
13.46	-36.0382	41.9497
13.4625	-38.0712	41.9595
13.4617	-42.46867	41.9692
13.4633	-47.2826	41.979
13.4639	-48.6076	41.98877
13.46355	-43.3565	41.9985
13.4649	-41.5426	42.0083
13.4667	-36.93644	42.0181
13.4671	-38.9279	42.0278
13.4673	-45.3575	42.0376
13.4678	-48.8275	42.0474
13.4695	-51.2671	42.0571
13.4709	-40.3187	42.0669
13.4705	-35.85054	42.07666
13.4718	-37.5118	42.0864
13.4727	-43.7134	42.0962
13.4739	-49.893	42.106
13.4747	-49.12891	42.1157
13.4738	-43.8861	42.1255
13.476	-38.7344	42.1353
13.4764	-38.9861	42.14502
13.4773	-40.8597	42.1548
13.4775	-47.3404	42.1646
13.4795	-50.7691	42.1743
13.48	-44.9034	42.1841
13.4803	-39.1086	42.1938
13.481	-35.5116	42.2036
13.4817	-39.6116	42.2134
13.4837	-46.3987	42.2231
13.4842	-47.5083	42.23291
13.4854	-47.8593	42.2427
13.48597	-41.3015	42.2524
13.486	-39.1603	42.2622
13.4883	-38.8268	42.272
13.4885	-40.0679	42.2817
13.48834	-50.0658	42.2915
13.4898	-46.6904	42.30127
13.4923	-43.3339	42.311
13.4919	-38.96413	42.3208
13.4928	-36.3432	42.3306
13.4922	-45.6803	42.3403
13.4933	-44.853	42.3501
13.4951	-45.237	42.3599
13.4953	-46.2454	42.3696
13.4961	-42.3017	42.3794
13.4978	-40.619	42.38916
13.49824	-38.1259	42.3989
13.4992	-45.2578	42.4087
13.5	-48.0305	42.4185
13.5001	-46.586	42.4282
13.501	-43.1413	42.438
13.501	-37.7861	42.4478
13.50265	-39.2558	42.45752
13.5038	-43.3519	42.4673
13.5037	-44.5126	42.4771
13.5059	-47.766	42.4868
13.5066	-46.8084	42.4966
13.5059	-41.349	42.5063
13.5072	-36.9116	42.5161
13.5077	-39.5441	42.5259
13.5103	-44.2109	42.5356
13.5099	-49.8375	42.54541
13.5109	-46.7954	42.5552
13.5127	-43.8362	42.5649
13.5118	-39.9283	42.5747
13.5138	-38.7505	42.5845
13.5138	-43.4059	42.5942