File: data/processed_data_files/tensile/0.254_hd_dimension_typei_4545_r(2).dat
MTS793|BTW|ENU|1|2|.|/|:|1|0|0|A

Data Header:			0.254_hd_dimension_typei_4545_r0			Time:	20.0286	s	4/15/2019 3:09:38 PM
Data Acquisition:	Timed
Station Name:	ft40.cfg
Test File Name:	monotonic_0.2540_typei_hd_4545_dimension.tst
Displacement	Force	Running Time
mm	N	s
9.98131	-129.0585	0.0319824
9.98419	-127.0946	0.1003418
9.99016	-121.497	0.168701
9.99475	-117.708	0.237061
10.0008	-112.642	0.30542
10.0066	-106.563	0.3737793
10.012	-111.318	0.442139
10.0178	-111.075	0.510498
10.0234	-105.913	0.578857
10.02902	-106.716	0.6472168
10.0351	-106.1351	0.715576
10.0404	-100.78	0.783936
10.0463	-92.2158	0.852295
10.0511	-86.9924	0.9206543
10.0588	-82.4262	0.989014
10.0627	-75.35524	1.057373
10.0695	-77.3657	1.12573
10.0739	-79.084	1.19409
10.0809	-74.9156	1.26245
10.0861	-75.667	1.33081
10.0915	-76.1334	1.39917
10.0987	-70.1937	1.46753
10.1027	-64.9894	1.53589
10.1092	-56.7697	1.604248
10.114	-52.1356	1.67261
10.1203	-45.3858	1.74097
10.1258	-45.9688	1.80933
10.1321	-44.0729	1.87769
10.1373	-42.77626	1.94604
10.1435	-41.74995	2.0144
10.148	-42.4366	2.08276
10.1541	-39.76	2.151123
10.1604	-33.7502	2.21948
10.1649	-28.2765	2.28784
10.1719	-21.536	2.3562
10.1771	-17.72591	2.42456
10.1831	-14.2708	2.49292
10.18831	-12.39657	2.56128
10.1949	-8.67671	2.62964
10.2001	-7.57015	2.697998
10.2062	-9.34051	2.76636
10.2107	-7.001318	2.83472
10.2163	-5.60995	2.90308
10.2223	1.26031	2.97144
10.2277	10.258	3.03979
10.2336	15.0791	3.10815
10.2394	17.0419	3.17651
10.2457	20.3746	3.244873
10.2515	28.4225	3.31323
10.2571	25.8467	3.38159
10.2627	24.2835	3.44995
10.2688	27.0465	3.51831
10.2727	26.9675	3.58667
10.2802	31.2013	3.65503
10.28545	38.1371	3.72339
10.2921	46.7536	3.791748
10.2974	49.5944	3.86011
10.3017	52.6462	3.92847
10.3079	61.6822	3.99683
10.3139	58.122	4.06519
10.3203	58.8009	4.13354
10.3248	60.0942	4.2019
10.3316	61.6862	4.27026
10.3361	62.0914	4.338623
10.3425	68.8917	4.40698
10.3492	74.9611	4.47534
10.3544	79.0072	4.5437
10.3584	84.0145	4.61206
10.3648	91.00489	4.68042
10.37	94.7681	4.74878
10.3763	91.3466	4.81714
10.3819	92.8041	4.885498
10.388	95.2208	4.95386
10.393	95.6519	5.02222
10.3993	98.6825	5.09058
10.40453	105.864	5.15894
10.4105	109.447	5.22729
10.4156	114.568	5.29565
10.42176	122.826	5.36401
10.4275	127.451	5.432373
10.4326	125.818	5.50073
10.4391	128.095	5.56909
10.4456	128.126	5.63745
10.45072	130.6162	5.70581
10.4563	132.254	5.77417
10.4609	136.2484	5.84253
10.468	140.54	5.91089
10.4727	145.386	5.979248
10.4791	153.679	6.04761
10.4835	158.994	6.11597
10.49036	160.5173	6.18433
10.4962	162.083	6.25269
10.501	161.318	6.32104
10.5077	162.378	6.3894
10.5136	166.614	6.45776
10.519	167.609	6.526123
10.5244	170.496	6.59448
10.5303	174.457	6.66284
10.5358	185.536	6.7312
10.5422	190.682	6.79956
10.5478	193.599	6.86792
10.5526	196.02	6.93628
10.5603	195.269	7.00464
10.5643	198.575	7.072998
10.5701	199.223	7.14136
10.5755	199.923	7.20972
10.581	200.327	7.27808
10.5873	203.642	7.34644
10.59221	213.748	7.41479
10.598	220.487	7.48315
10.6035	222.516	7.55151
10.6108	228.432	7.619873
10.6155	231.843	7.68823
10.6209	228.416	7.75659
10.627	231.005	7.82495
10.6322	234.5939	7.89331
10.6386	231.721	7.96167
10.6431	235.69	8.03003
10.649	243.531	8.09839
10.6554	249.939	8.166748
10.6613	252.881	8.23511
10.6673	259.762	8.30347
10.6724	264.369	8.37183
10.6787	263.93	8.44019
10.6838	264.922	8.50854
10.6896	267.99	8.5769
10.696	264.701	8.64526
10.7008	263.701	8.713623
10.7062	272.591	8.78198
10.7124	280.405	8.85034
10.718	284.675	8.9187
10.7238	289.0054	8.98706
10.7298	295.091	9.05542
10.7344	297.61	9.12378
10.7406	299.785	9.19214
10.7465	299.778	9.260498
10.7525	298.926	9.32886
10.7587	297.9364	9.39722
10.7646	300.654	9.46558
10.7692	307.694	9.53394
10.7757	313.512	9.60229
10.7809	319.275	9.67065
10.786	324.478	9.73901
10.7927	330.418	9.807373
10.7974	332.167	9.87573
10.8029	331.737	9.94409
10.809	329.668	10.0125
10.8138	328.49	10.0808
10.8198	331.704	10.14917
10.8257	335.746	10.2175
10.8323	341.796	10.2859
10.838	348.208	10.3542
10.8442	354.762	10.4226
10.8487	358.942	10.491
10.8552	364.666	10.5593
10.86066	365.889	10.6277
10.86641	362.869	10.696
10.8719	360.372	10.7644
10.8776	362.997	10.8328
10.8831	365.132	10.9011
10.8892	368.184	10.9695
10.8949	375.785	11.0378
10.90028	384.496	11.1062
10.9061	388.315	11.1746
10.9114	394.969	11.24292
10.91659	398.382	11.3113
10.9226	397.492	11.3796
10.928	391.122	11.448
10.9349	395.887	11.5164
10.94	397.575	11.5847
10.9456	398.159	11.6531
10.9517	403.708	11.7214
10.95792	412.3981	11.7898
10.9627	416.138	11.8582
10.9681	422.974	11.9265
10.9743	428.622	11.9949
10.98	430.386	12.0632
10.9858	423.905	12.1316
10.9917	426.97	12.2
10.9972	428.718	12.2683
11.0021	426.582	12.33667
11.0094	430.318	12.405
11.0136	439.619	12.4734
11.0197	442.887	12.5417
11.0257	451.871	12.6101
11.0308	457.1312	12.6785
11.0367	459.993	12.7468
11.0429	457.719	12.8152
11.04745	457.686	12.8835
11.0551	461.143	12.9519
11.0607	457.784	13.0203
11.066	459.613	13.0886
11.0718	465.354	13.157
11.0766	470.476	13.2253
11.0816	479.756	13.2937
11.0883	484.397	13.3621
11.0938	488.853	13.43042
11.0989	489.656	13.4988
11.1052	489.301	13.5671
11.1112	490.612	13.6355
11.1168	489.258	13.7039
11.1219	490.795	13.7722
11.1275	492.782	13.8406
11.1326	496.2095	13.9089
11.1396	506.336	13.9773
11.1453	512.884	14.0457
11.151	517.284	14.114
11.1559	517.067	14.1824
11.1611	520.303	14.2507
11.1679	523.643	14.3191
11.1732	516.83	14.3875
11.1788	518.919	14.4558
11.18462	519.821	14.52417
11.1911	523.771	14.5925
11.1958	530.354	14.6609
11.2023	539.869	14.7292
11.2071	543.347	14.7976
11.214	544.725	14.866
11.2187	547.421	14.9343
11.224	551.652	15.0027
11.2307	548.619	15.071
11.2359	545.867	15.1394
11.2422	549.321	15.2078
11.2478	549.7417	15.2761
11.2544	555.325	15.3445
11.2596	564.698	15.4128
11.2654	568.992	15.4812
11.2698	568.459	15.5496
11.2759	575.449	15.61792
11.282	582.29	15.6863
11.2871	579.402	15.7546
11.2925	576.523	15.823
11.29944	577.362	15.8914
11.3041	576.365	15.9597
11.31	579.477	16.0281
11.31574	585.546	16.0964
11.322	593.205	16.1648
11.3264	595.7533	16.2332
11.33322	601.146	16.3015
11.3388	606.9021	16.3699
11.3449	606.9325	16.4382
11.3505	602.711	16.5066
11.357	606.048	16.575
11.3612	604.238	16.6433
11.3665	607.767	16.71167
11.3723	609.739	16.78
11.3776	615.683	16.8484
11.3836	618.622	16.9167
11.3897	625.427	16.9851
11.3942	634.16	17.0535
11.4013	634.1344	17.1218
11.407	634.513	17.1902
11.4128	632.24	17.2585
11.41775	631.527	17.3269
11.4233	634.5271	17.3953
11.4303	635.43	17.4636
11.4358	640.364	17.532
11.4411	642.331	17.6003
11.447	648.055	17.6687
11.4532	658.2254	17.7371
11.4581	660.4	17.80542
11.4631	662.284	17.8738
11.4692	661.647	17.9421
11.4753	658.984	18.0105
11.4813	660.739	18.0789
11.4863	661.961	18.1472
11.4917	663.987	18.2156
11.4975	665.51	18.2839
11.5044	671.958	18.3523
11.5097	681.205	18.4207
11.5166	683.6618	18.489
11.5205	687.13	18.5574
11.52714	689.887	18.6257
11.5326	685.482	18.6941
11.53863	688.04	18.7625
11.5439	689.44	18.8308
11.5492	689.1	18.89917
11.5554	687.443	18.9675
11.561	693.078	19.0359
11.5666	703.209	19.1042
11.5713	706.691	19.1726
11.5773	709.548	19.241
11.5832	715.255	19.3093
11.5904	714.386	19.3777
11.596	712.08	19.446
11.6009	714.437	19.5144
11.607	713.051	19.5828
11.6126	710.35	19.6511
11.61731	714.125	19.7195
11.6241	725.662	19.7878
11.6297	729.122	19.8562
11.6343	732.033	19.9246
11.6402	738.22	19.99292
11.6427	725.638	20.0222

Data Header:			0.254_hd_dimension_typei_4545_r0			Time:	40.0276	s	4/15/2019 3:09:58 PM
Data Acquisition:	Timed
Station Name:	ft40.cfg
Test File Name:	monotonic_0.2540_typei_hd_4545_dimension.tst
Displacement	Force	Running Time
mm	N	s
11.6431	729.075	20.032
11.6492	733.104	20.1003
11.6559	738.261	20.1687
11.661	744.035	20.2371
11.6664	749.0376	20.30542
11.6712	747.298	20.3738
11.6783	748.772	20.4421
11.6835	747.7627	20.5105
11.6898	743.069	20.5789
11.6945	746.433	20.6472
11.7009	752.159	20.7156
11.7064	750.325	20.7839
11.7119	753.095	20.8523
11.71726	765.657	20.9207
11.7228	771.009	20.989
11.7295	771.431	21.0574
11.7354	770.077	21.1257
11.7401	770.061	21.1941
11.7456	767.638	21.2625
11.7524	768.637	21.3308
11.7578	769.466	21.39917
11.7633	773.553	21.4675
11.76821	772.788	21.5359
11.7756	781.308	21.6042
11.7805	788.864	21.6726
11.7856	791.799	21.741
11.7912	792.7298	21.8093
11.7982	793.897	21.8777
11.80299	791.722	21.946
11.8085	788.938	22.0144
11.8144	790.505	22.0828
11.8204	790.325	22.1511
11.8265	791.592	22.2195
11.83178	798.82	22.2878
11.83769	806.354	22.3562
11.8426	809.6377	22.4246
11.84874	812.5824	22.49292
11.8542	813.984	22.5613
11.8611	812.913	22.6296
11.866	811.923	22.698
11.8712	811.924	22.7664
11.8775	808.959	22.8347
11.8836	810.723	22.9031
11.8876	816.137	22.9714
11.8939	821.652	23.0398
11.9002	824.814	23.1082
11.9059	830.661	23.1765
11.9126	832.691	23.2449
11.9172	831.963	23.3132
11.9232	832.732	23.3816
11.9291	832.352	23.45
11.9338	827.848	23.5183
11.9398	825.901	23.58667
11.9462	832.032	23.655
11.9502	835.258	23.7234
11.9572	841.421	23.7917
11.9632	845.614	23.8601
11.9688	850.741	23.9285
11.9736	850.53	23.9968
11.9796	852.021	24.0652
11.9855	850.848	24.1335
11.9909	846.027	24.2019
11.9971	842.275	24.2703
12.0025	847.463	24.3386
12.0091	850.338	24.407
12.0138	852.414	24.4753
12.0192	859.748	24.5437
12.0241	864.76	24.6121
12.0311	864.111	24.68042
12.0371	867.7	24.7488
12.0437	868.395	24.8171
12.0489	863.468	24.8855
12.0543	858.542	24.9539
12.0599	861.774	25.0222
12.065	865.2525	25.0906
12.0702	863.399	25.1589
12.0765	871.175	25.2273
12.083	877.779	25.2957
12.08725	878.9	25.364
12.0938	881.662	25.4324
12.09964	883.601	25.5007
12.1058	880.054	25.5691
12.11104	874.034	25.6375
12.1157	875.35	25.7058
12.1222	876.032	25.77417
12.1274	874.329	25.8425
12.13291	878.5235	25.9109
12.1388	886.728	25.9792
12.1454	888.706	26.0476
12.1503	894.2	26.116
12.1555	895.613	26.1843
12.1618	890.97	26.2527
12.1684	887.1665	26.321
12.1738	887.4538	26.3894
12.1808	888.26	26.4578
12.1848	886.262	26.5261
12.1906	889.052	26.5945
12.1967	894.145	26.6628
12.202	898.753	26.7312
12.2073	903.556	26.7996
12.2134	905	26.86792
12.2191	902.716	26.9363
12.225	901.143	27.0046
12.23084	899.989	27.073
12.2367	896.908	27.1414
12.2422	895.862	27.2097
12.2476	897.609	27.2781
12.2539	900.6615	27.3464
12.2593	902.364	27.4148
12.26478	910.458	27.4832
12.27	915.1521	27.5515
12.2761	911.74	27.6199
12.2826	910.2641	27.6882
12.28798	910.413	27.7566
12.2935	908.452	27.825
12.2988	903.924	27.8933
12.30476	904.155	27.96167
12.3099	905.854	28.03
12.315	908.215	28.0984
12.3216	914.478	28.1667
12.3268	920.27	28.2351
12.3329	919.452	28.3035
12.3387	917.667	28.3718
12.3457	919.7663	28.4402
12.35083	918.135	28.5085
12.3564	912.256	28.5769
12.3615	910.373	28.6453
12.3681	912.666	28.7136
12.3731	911.746	28.782
12.3783	918.18	28.8503
12.3837	924.498	28.9187
12.3908	925.538	28.9871
12.3943	925.496	29.05542
12.4005	925.817	29.1238
12.4068	927.463	29.1921
12.4128	921.948	29.2605
12.4189	916.56	29.3289
12.4238	916.954	29.3972
12.4294	917.729	29.4656
12.4363	921.184	29.5339
12.44159	924.7475	29.6023
12.4466	928.681	29.6707
12.4531	928.824	29.739
12.4591	930.619	29.8074
12.4644	934.15	29.8757
12.4696	930.584	29.9441
12.4759	926.157	30.0125
12.4821	923.265	30.0808
12.4857	922.355	30.14917
12.493	925.015	30.2175
12.4987	928.068	30.2859
12.5033	929.8739	30.3542
12.5095	932.881	30.4226
12.5152	936.685	30.491
12.52051	937.827	30.5593
12.5271	933.93	30.6277
12.5313	933.013	30.696
12.5384	928.299	30.7644
12.5451	926.704	30.8328
12.5482	929.183	30.9011
12.5555	931.454	30.9695
12.5607	931.497	31.0378
12.5672	934.298	31.1062
12.5722	939.253	31.1746
12.57766	942.108	31.24292
12.5841	939.946	31.3113
12.5901	937.859	31.3796
12.5948	935.895	31.448
12.6009	930.086	31.5164
12.6075	932.863	31.5847
12.6129	934.314	31.6531
12.618	934.283	31.7214
12.624	934.129	31.7898
12.6296	940.906	31.8582
12.635	946.31	31.9265
12.6405	943.263	31.9949
12.6461	942.509	32.0632
12.6516	941.813	32.1316
12.6573	937.644	32.2
12.6624	935.549	32.2683
12.6697	936.621	32.33667
12.6746	935.364	32.405
12.6795	935.899	32.4734
12.6865	942.837	32.5417
12.6917	949.1709	32.6101
12.6974	948.017	32.6785
12.7041	946.301	32.7468
12.7074	945.95	32.8152
12.7146	942.194	32.8835
12.7203	938.9682	32.9519
12.7261	937.953	33.0203
12.7318	938.22	33.0886
12.7384	935.802	33.157
12.7434	940.579	33.2253
12.7484	948.061	33.2937
12.7541	949.495	33.3621
12.7601	951	33.43042
12.7658	948.2005	33.4988
12.7728	947.571	33.5671
12.7772	945.309	33.6355
12.784	942.877	33.7039
12.7882	941.134	33.7722
12.7952	939.009	33.8406
12.8002	941.307	33.9089
12.8055	945.013	33.9773
12.8123	949.347	34.0457
12.8173	950.389	34.114
12.8227	951.725	34.1824
12.829	950.136	34.2507
12.8341	950.109	34.3191
12.8404	947.245	34.3875
12.8459	942.715	34.4558
12.8517	939.848	34.52417
12.8576	942.939	34.5925
12.8631	946.464	34.6609
12.8688	948.966	34.7292
12.8737	951.458	34.7976
12.8799	954.4621	34.866
12.8848	951.241	34.9343
12.892	951.825	35.0027
12.8979	951.905	35.071
12.9026	945.46	35.1394
12.9078	941.562	35.2078
12.914	943.055	35.2761
12.9201	947.107	35.3445
12.9257	949.359	35.4128
12.931	949.936	35.4812
12.93568	955.981	35.5496
12.9428	954.771	35.61792
12.9484	953.998	35.6863
12.9528	954.634	35.7546
12.9591	952.099	35.823
12.9648	943.58	35.8914
12.9695	944.594	35.9597
12.9775	948.681	36.0281
12.9816	947.237	36.0964
12.9883	949.825	36.1648
12.9928	955.808	36.2332
12.99885	956.268	36.3015
13.0048	956.822	36.3699
13.0104	956.203	36.4382
13.0165	954.629	36.5066
13.0222	947.437	36.575
13.0276	944.43	36.6433
13.0333	948.174	36.71167
13.0397	947.4729	36.78
13.0453	948.035	36.8484
13.04913	953.4082	36.9167
13.0562	956.642	36.9851
13.0612	959.6048	37.0535
13.0673	959.154	37.1218
13.073	956.479	37.1902
13.0787	952.6048	37.2585
13.08436	949.9679	37.3269
13.0893	949.104	37.3953
13.0964	947.977	37.4636
13.1018	947.895	37.532
13.1084	950.641	37.6003
13.113	954.391	37.6687
13.1193	959.484	37.7371
13.12552	958.521	37.80542
13.1303	958.36	37.8738
13.1361	955.538	37.9421
13.1416	951.115	38.0105
13.1478	950.507	38.0789
13.1526	947.8	38.1472
13.1592	948.864	38.2156
13.1638	949.583	38.2839
13.16992	953.473	38.3523
13.1758	958.183	38.4207
13.1817	960.841	38.489
13.1877	959.642	38.5574
13.19344	955.5954	38.6257
13.1993	954.525	38.6941
13.2032	954.475	38.7625
13.2097	949.216	38.8308
13.2156	948.893	38.89917
13.2213	949.093	38.9675
13.2277	950.195	39.0359
13.2328	956.652	39.1042
13.2383	961.5907	39.1726
13.24401	961.745	39.241
13.2507	958.188	39.3093
13.2563	957.949	39.3777
13.2612	958.3739	39.446
13.267	951.206	39.5144
13.2731	948.075	39.5828
13.2799	950.761	39.6511
13.28449	952.033	39.7195
13.289	953.261	39.7878
13.2955	958.262	39.8562
13.3006	959.801	39.9246
13.3069	957.427	39.99292
13.3089	950.249	40.0222

Data Header:			0.254_hd_dimension_typei_4545_r0			Time:	60.0273	s	4/15/2019 3:10:18 PM
Data Acquisition:	Timed
Station Name:	ft40.cfg
Test File Name:	monotonic_0.2540_typei_hd_4545_dimension.tst
Displacement	Force	Running Time
mm	N	s
13.311	949.483	40.032
13.3161	952.888	40.1003
13.3213	956.362	40.1687
13.3273	959.433	40.2371
13.333	962.41	40.30542
13.3386	961.816	40.3738
13.344	957.076	40.4421
13.35095	952.134	40.5105
13.3554	953.064	40.5789
13.3611	948.731	40.6472
13.3678	950.035	40.7156
13.3739	952.585	40.7839
13.3784	955.3587	40.8523
13.3843	955.479	40.9207
13.3897	960.469	40.989
13.3958	962.417	41.0574
13.4008	959.975	41.1257
13.4076	954.054	41.1941
13.4135	953.749	41.2625
13.418	951.964	41.3308
13.4238	947.344	41.39917
13.4297	949.295	41.4675
13.4348	955.1745	41.5359
13.4414	957.139	41.6042
13.4472	960.098	41.6726
13.4525	963.3324	41.741
13.4592	962.347	41.8093
13.4639	956.258	41.8777
13.4696	956.881	41.946
13.4752	954.149	42.0144
13.4813	950.603	42.0828
13.48728	949.864	42.1511
13.4928	953.017	42.2195
13.4972	953.342	42.2878
13.5037	957.992	42.3562
13.5094	961.24	42.4246
13.5148	961.752	42.49292
13.5202	959.508	42.5613
13.5266	958.311	42.6296
13.5323	956.898	42.698
13.538	953.025	42.7664
13.5425	949.067	42.8347
13.5481	948.908	42.9031
13.555	952.633	42.9714
13.5608	957	43.0398
13.5672	960.506	43.1082
13.5726	960.52	43.1765
13.5782	959.504	43.2449
13.583	962.1684	43.3132
13.5896	957.432	43.3816
13.5956	953.013	43.45
13.60048	952.23	43.5183
13.6064	949.879	43.58667
13.6124	952.163	43.655
13.6171	954.927	43.7234
13.6242	959.012	43.7917
13.62908	956.793	43.8601
13.6336	959.091	43.9285
13.6412	963.573	43.9968
13.6463	960.961	44.0652
13.6527	956.654	44.1335
13.6578	953.528	44.2019
13.6639	952.119	44.2703
13.6705	948.387	44.3386
13.6746	953.255	44.407
13.68042	956.09	44.4753
13.6858	958.884	44.5437
13.6913	958.446	44.6121
13.6979	964.164	44.68042
13.7033	962.818	44.7488
13.7089	957.152	44.8171
13.7147	955.789	44.8855
13.7195	954.214	44.9539
13.7262	950.006	45.0222
13.7322	952.86	45.0906
13.738	955.722	45.1589
13.7432	956.361	45.2273
13.75	953.999	45.2957
13.7543	964.817	45.364
13.7604	963.757	45.4324
13.7664	958.724	45.5007
13.7723	957.371	45.5691
13.7773	956.182	45.6375
13.7825	953.474	45.7058
13.78931	951.25	45.77417
13.795	953.555	45.8425
13.8001	953.61	45.9109
13.8064	956.457	45.9792
13.8124	960.878	46.0476
13.818	965.423	46.116
13.8226	962.514	46.1843
13.8286	959.922	46.2527
13.834	957.689	46.321
13.84	954.506	46.3894
13.8456	953.104	46.4578
13.8515	951.944	46.5261
13.8573	952.757	46.5945
13.8625	953.901	46.6628
13.869	959.75	46.7312
13.8744	962.63	46.7996
13.8807	962.939	46.86792
13.885	962.933	46.9363
13.8919	959.999	47.0046
[...]
14.8018	958.788	57.9421
14.80898	957.781	58.0105
14.8142	954.367	58.0789
14.8197	952.486	58.1472
14.8259	950.435	58.2156
14.8312	951.956	58.2839
14.8371	955.76	58.3523
14.8436	960.382	58.4207
14.8484	961.157	58.489
14.855	963.043	58.5574
14.8599	960.776	58.6257
14.8657	956.9845	58.6941
14.8706	955.469	58.7625
14.8769	952.604	58.8308
14.8829	948.958	58.89917
14.8889	951.088	58.9675
14.8939	955.02	59.0359
14.8991	957.445	59.1042
14.9059	959.551	59.1726
14.9108	964.265	59.241
14.9165	961.748	59.3093
14.9229	959.049	59.3777
14.9285	959.355	59.446
14.9331	955.1308	59.5144
14.9399	948.765	59.5828
14.9461	949.086	59.6511
14.9512	955.959	59.7195
14.9567	955.085	59.7878
14.9624	957.672	59.8562
14.9671	962.565	59.9246
14.9741	962.679	59.99292
14.9766	950.2868	60.0222

Data Header:			0.254_hd_dimension_typei_4545_r0			Time:	80.0276	s	4/15/2019 3:10:38 PM
Data Acquisition:	Timed
Station Name:	ft40.cfg
Test File Name:	monotonic_0.2540_typei_hd_4545_dimension.tst
Displacement	Force	Running Time
mm	N	s
14.9778	952.49	60.032
14.9822	952.836	60.1003
14.9881	956.735	60.1687
14.9941	962.3	60.2371
14.99948	962.417	60.30542
15.005	962.626	60.3738
15.0109	960.089	60.4421
15.0175	954.198	60.5105
15.0239	953.408	60.5789
15.0285	952.739	60.6472
15.0339	949.758	60.7156
15.04	950.68	60.7839
15.04481	956.689	60.8523
15.0509	960.2569	60.9207
15.05698	960.342	60.989
15.0621	961.1394	61.0574
15.0675	962.393	61.1257
15.0734	956.341	61.1941
15.0799	955.798	61.2625
15.0854	953.052	61.3308
15.0909	950.202	61.39917
15.0961	946.762	61.4675
15.1023	955.361	61.5359
15.108	959.8703	61.6042
15.113	959.642	61.6726
15.1189	961.699	61.741
15.1252	962.883	61.8093
15.1314	959.145	61.8777
15.1368	956.489	61.946
15.1417	953.3941	62.0144
15.1483	952.611	62.0828
15.1529	946.708	62.1511
15.1594	949.887	62.2195
15.1637	957.964	62.2878
15.1706	956.41	62.3562
15.17648	959.485	62.4246
15.1805	961.175	62.49292
15.1887	959.604	62.5613
15.1938	957.272	62.6296
15.199	955.551	62.698
15.20543	951.429	62.7664
15.2104	947.549	62.8347
15.2161	947.823	62.9031
15.2218	953.741	62.9714
15.22788	954.415	63.0398
15.2335	958.373	63.1082
15.2391	960.62	63.1765
15.2447	962.298	63.2449
15.2503	961.122	63.3132
15.2559	956.188	63.3816
15.26231	952.675	63.45
15.2674	948.857	63.5183
15.273	947.513	63.58667
15.2796	951.028	63.655
15.2841	952.61	63.7234
15.2909	956.821	63.7917
15.2962	958.985	63.8601
15.3011	959.746	63.9285
15.3065	962.612	63.9968
15.31306	960.544	64.0652
15.3189	955.816	64.1335
15.3237	949.893	64.2019
15.3304	947.784	64.2703
15.3361	949.868	64.3386
15.3414	949.0462	64.407
15.3464	955.486	64.4753
15.3523	957.516	64.5437
15.3579	958.576	64.6121
15.3651	962.29	64.68042
15.3695	963.426	64.7488
15.3764	956.343	64.8171
15.3822	951.829	64.8855
15.3871	949.791	64.9539
15.3924	951.4425	65.0222
15.398	947.9361	65.0906
15.4048	951.244	65.1589
15.40979	955.344	65.2273
15.4158	957.086	65.2957
15.4207	960.948	65.364
15.4282	963.416	65.4324
15.4329	961.021	65.5007
15.4371	953.134	65.5691
15.4444	951.38	65.6375
15.45	950.981	65.7058
15.4553	947.896	65.77417
15.4619	946.94	65.8425
15.4678	951.41	65.9109
15.4724	953.89	65.9792
15.4777	958.812	66.0476
15.4843	962.672	66.116
15.4905	961.242	66.1843
15.496	956.856	66.2527
15.5018	951.258	66.321
15.5072	952.406	66.3894
15.5129	949.2511	66.4578
15.51807	946.466	66.5261
15.5228	949.3974	66.5945
15.5285	952.838	66.6628
15.535	958.228	66.7312
15.5407	961.342	66.7996
15.5465	961.1485	66.86792
15.5532	958.066	66.9363
15.5574	955.88	67.0046
15.5641	954.606	67.073
15.56875	949.41	67.1414
15.5746	947.0744	67.2097
15.5817	948.541	67.2781
15.5865	950.434	67.3464
15.59214	955.042	67.4148
15.5986	958.505	67.4832
15.6031	959.591	67.5515
15.60843	958.475	67.6199
15.6145	957.8819	67.6882
15.6216	957.03	67.7566
15.6263	952.077	67.825
15.6318	948.354	67.8933
15.6367	948.792	67.96167
15.6434	946.861	68.03
15.6501	952.092	68.0984
15.6555	955.797	68.1667
15.6611	959.103	68.2351
15.6662	958.146	68.3035
15.6715	958.974	68.3718
15.6785	960.781	68.4402
15.6838	954.567	68.5085
15.68827	949.025	68.5769
15.6946	949.243	68.6453
15.7	945.563	68.7136
15.7064	948.566	68.782
15.71142	953.9422	68.8503
15.7175	956.211	68.9187
15.7228	956.251	68.9871
15.7288	957.628	69.05542
15.7353	960.484	69.1238
15.73984	955.765	69.1921
15.7454	950.244	69.2605
15.7524	949.102	69.3289
15.7567	946.581	69.3972
15.7632	948.303	69.4656
15.7691	949.352	69.5339
15.774	954.517	69.6023
15.7791	955.459	69.6707
15.7861	955.847	69.739
15.7898	962.221	69.8074
15.7975	960.219	69.8757
15.80303	952.547	69.9441
15.8086	950.153	70.0125
15.8141	946.738	70.0808
15.82025	945.702	70.14917
15.8261	947.195	70.2175
15.83177	950.377	70.2859
15.8367	952.657	70.3542
15.8428	955.451	70.4226
15.8498	962.703	70.491
15.8552	959.659	70.5593
15.8605	956.241	70.6277
15.8659	951.533	70.696
15.8707	948.112	70.7644
15.8763	946.181	70.8328
15.8836	948.078	70.9011
15.8887	947.187	70.9695
15.8941	948.712	71.0378
15.9002	953.121	71.1062
15.9053	959.306	71.1746
15.911	960.4632	71.24292
15.91726	959.928	71.3113
15.9229	955.502	71.3796
15.9289	950.981	71.448
15.9339	947.177	71.5164
15.9403	948.796	71.5847
15.9457	946.821	71.6531
15.9521	946.956	71.7214
15.9563	948.596	71.7898
15.9626	959.291	71.8582
15.9688	957.92	71.9265
15.9738	960.5752	71.9949
15.9803	959.991	72.0632
15.9854	951.518	72.1316
15.9905	949.698	72.2
15.9964	948.777	72.2683
16.00309	945.926	72.33667
16.0082	944.062	72.405
16.0143	947.959	72.4734
16.019	955.681	72.5417
16.0256	956.058	72.6101
16.0304	958.098	72.6785
16.0366	960.331	72.7468
16.0423	956.632	72.8152
16.0477	951.588	72.8835
16.0545	950.17	72.9519
16.0586	947.321	73.0203
16.0649	942.175	73.0886
16.0711	945.367	73.157
16.07659	953.214	73.2253
16.0824	954.54	73.2937
16.0883	954.711	73.3621
16.093	959.096	73.43042
16.0988	958.161	73.4988
16.1051	955.6806	73.5671
16.1106	951.399	73.6355
16.1171	948.539	73.7039
16.1214	942.948	73.7722
16.1282	943.084	73.8406
16.1346	947.755	73.9089
16.1388	953.097	73.9773
16.1452	953.51	74.0457
16.1513	957.111	74.114
16.1569	956.978	74.1824
16.16169	957.982	74.2507
16.1677	953.331	74.3191
16.1728	949.628	74.3875
16.1785	945.6958	74.4558
16.1837	941.881	74.52417
16.19035	944.355	74.5925
16.1957	948.3689	74.6609
16.2013	952.155	74.7292
16.2075	956.394	74.7976
16.2143	957.364	74.866
16.2187	956.553	74.9343
16.2237	957.789	75.0027
16.2301	951.041	75.071
16.2362	946.0553	75.1394
16.2416	943.0174	75.2078
16.2479	944.837	75.2761
16.2533	944.241	75.3445
16.2589	949.03	75.4128
16.2641	954.987	75.4812
16.2701	955.526	75.5496
16.2766	957.175	75.61792
16.2819	957.818	75.6863
16.2867	954.522	75.7546
16.2926	946.345	75.823
16.29887	942.658	75.8914
16.3042	945.424	75.9597
16.3092	941.704	76.0281
16.316	942.864	76.0964
16.3213	951.434	76.1648
16.3275	952.961	76.2332
16.3326	955.032	76.3015
16.3384	957.893	76.3699
16.3443	957.699	76.4382
16.3494	950.451	76.5066
16.3553	945.21	76.575
16.36204	946.477	76.6433
16.3665	943.3479	76.71167
16.3734	939.992	76.78
16.3777	945.423	76.8484
16.3844	950.757	76.9167
16.3893	953.64	76.9851
16.3955	956.23	77.0535
16.4019	957.303	77.1218
16.4064	952.097	77.1902
16.4133	945.96	77.2585
16.4181	947.188	77.3269
16.4241	941.865	77.3953
16.4301	937.913	77.4636
16.4356	940.606	77.532
16.4422	944.9776	77.6003
16.4465	949.125	77.6687
16.45223	948.644	77.7371
16.4604	-29.8988	77.80542
16.4651	-35.5395	77.8738
16.47073	-40.2818	77.9421
16.4763	-41.4308	78.0105
16.4829	-45.64016	78.0789
16.48745	-48.7143	78.1472
16.4926	-50.6572	78.2156
16.49889	-47.2007	78.2839
16.505	-41.3253	78.3523
16.5101	-36.4242	78.4207
16.5158	-35.4897	78.489
16.5211	-35.7283	78.5574
16.5262	-36.9495	78.6257
16.5329	-36.9099	78.6941
16.5386	-43.5402	78.7625
16.5445	-48.1284	78.8308
16.55	-48.1105	78.89917
16.5552	-50.1921	78.9675
16.5613	-45.8094	79.0359
16.5672	-40.1883	79.1042
16.5718	-37.0219	79.1726
16.5775	-36.0604	79.241
16.5835	-37.0716	79.3093
16.5895	-35.7095	79.3777
16.5954	-41.3033	79.446
16.6007	-46.9828	79.5144
16.6066	-48.7456	79.5828
16.6125	-49.9737	79.6511
16.61791	-47.7318	79.7195
16.62377	-44.1818	79.7878
16.6291	-38.686	79.8562
16.6352	-39.9484	79.9246
16.6421	-38.1847	79.99292
16.6425	-48.04813	80.0222

Data Header:			0.254_hd_dimension_typei_4545_r0			Time:	80.1609	s	4/15/2019 3:10:38 PM
Data Acquisition:	Timed
Station Name:	ft40.cfg
Test File Name:	monotonic_0.2540_typei_hd_4545_dimension.tst
Displacement	Force	Running Time
mm	N	s
16.6447	-48.1303	80.032
16.6453	-42.51363	80.0417
16.6448	-38.5484	80.0515
16.6457	-34.5444	80.0613
16.6473	-40.49818	80.071
16.6482	-48.3367	80.0808
16.649	-49.7079	80.0906
16.6508	-45.4757	80.1003
16.651	-38.0748	80.1101
16.65144	-35.3689	80.1199
16.6517	-40.1908	80.1296
16.65357	-43.562	80.1394
16.6539	-50.6142	80.14917