File: data/processed_data_files/tensile/0.254_hd_uprint_typeiv_4545_r(9).dat
MTS793|BTW|ENU|1|2|.|/|:|1|0|0|A

Data Header:			0.254_hd_uprint_typeiv_4545_r0			Time:	20.0178	s	4/13/2019 7:55:32 PM
Data Acquisition:	Timed
Station Name:	ft40.cfg
Test File Name:	monotonic_0.2540_typeiv_hd_4545_uprint.tst
Displacement	Force	Running Time
mm	N	s
-40.0349	-255.454	0.0227051
-40.032	-251.064	0.0910645
-40.02536	-250.872	0.159424
-40.0214	-247.4184	0.2277832
-40.01437	-239.428	0.296143
-40.0097	-236.526	0.364502
-40.0039	-231.205	0.432861
-39.9977	-226.3808	0.5012207
-39.9925	-222.204	0.56958
-39.9868	-226.321	0.637939
-39.9818	-223.1922	0.706299
-39.975	-216.731	0.7746582
-39.96867	-217.312	0.843018
-39.9637	-213.94	0.911377
-39.95821	-208.491	0.979736
-39.9519	-203.876	1.0481
-39.9462	-197.644	1.11646
-39.9411	-194.392	1.18481
-39.9348	-190.885	1.25317
-39.9295	-190.257	1.32153
-39.9242	-187.096	1.38989
-39.9193	-184.423	1.458252
-39.9124	-184.025	1.52661
-39.9068	-181.233	1.59497
-39.9015	-176.177	1.66333
-39.8954	-171.667	1.73169
-39.8896	-165.087	1.80005
-39.8842	-160.697	1.86841
-39.8793	-157.996	1.93677
-39.8728	-155.2812	2.005127
-39.8666	-150.992	2.07349
-39.8615	-150.548	2.14185
-39.8558	-149.353	2.21021
-39.8497	-148.186	2.27856
-39.8439	-145.961	2.34692
-39.8377	-140.699	2.41528
-39.83247	-132.9998	2.48364
-39.8273	-129.769	2.552002
-39.8219	-125.529	2.62036
-39.8155	-121.186	2.68872
-39.8094	-116.522	2.75708
-39.8052	-115.701	2.82544
-39.7977	-115.5904	2.8938
-39.7929	-111.9861	2.96216
-39.7873	-111.208	3.03052
-39.7813	-106.084	3.098877
-39.7769	-101.82	3.16724
-39.77161	-97.4638	3.2356
-39.7656	-95.6411	3.30396
-39.7578	-87.50692	3.37231
-39.753	-81.8259	3.44067
-39.7483	-83.9267	3.50903
-39.7419	-79.2879	3.57739
-39.7362	-76.3766	3.645752
-39.7309	-78.7144	3.71411
-39.7245	-74.3966	3.78247
-39.72	-68.1822	3.85083
-39.7137	-68.4076	3.91919
-39.7079	-63.3317	3.98755
-39.70295	-54.4048	4.05591
-39.6955	-50.089	4.12427
-39.6894	-50.7871	4.192627
-39.6839	-46.2306	4.26099
-39.6795	-43.7446	4.32935
-39.6733	-43.9591	4.39771
-39.6675	-42.4314	4.46606
-39.6618	-36.1771	4.53442
-39.6563	-36.2852	4.60278
-39.6512	-30.8727	4.67114
-39.6448	-23.33667	4.739502
-39.6383	-19.5901	4.80786
-39.6321	-16.69314	4.87622
-39.6276	-12.5547	4.94458
-39.6226	-9.74947	5.01294
-39.6173	-10.725	5.0813
-39.611	-8.25371	5.14966
-39.6038	-4.15534	5.21802
-39.5985	-4.71985	5.286377
-39.594	-1.39826	5.35474
-39.5895	8.77796	5.4231
-39.5813	11.59	5.49146
-39.5769	15.6934	5.55981
-39.5705	20.1633	5.62817
-39.5668	21.4545	5.69653
-39.5592	25.1921	5.76489
-39.5535	28.0259	5.833252
-39.5479	27.8331	5.90161
-39.5417	28.3659	5.96997
-39.5363	32.5042	6.03833
-39.53109	38.2073	6.10669
-39.52557	43.2296	6.17505
-39.5195	48.1173	6.24341
-39.5137	50.9779	6.31177
-39.50806	55.7643	6.380127
-39.5025	59.0314	6.44849
-39.4967	61.78368	6.51685
-39.4912	58.6868	6.58521
-39.4855	59.998	6.65356
-39.4794	66.6567	6.72192
-39.4747	69.5151	6.79028
-39.469	73.445	6.85864
-39.4634	81.1962	6.927002
-39.4578	84.1521	6.99536
-39.4513	89.5229	7.06372
-39.4464	92.3621	7.13208
-39.4401	93.7493	7.20044
-39.43457	91.8145	7.2688
-39.4276	95.151	7.33716
-39.4232	99.1196	7.40552
-39.4183	100.9035	7.473877
-39.4112	104.046	7.54224
-39.4052	111.442	7.6106
-39.4007	115.019	7.67896
-39.394	120.073	7.74731
-39.3885	124.845	7.81567
-39.3827	126.216	7.88403
-39.3763	125.239	7.95239
-39.3719	127.985	8.020752
-39.3652	131.966	8.08911
-39.3598	132.123	8.15747
-39.3539	134.556	8.22583
-39.349	142.71	8.29419
-39.342	146.653	8.36255
-39.3371	150.431	8.43091
-39.33215	157.106	8.49927
-39.3252	159.947	8.567627
-39.319	156.98	8.63599
-39.3152	161.882	8.70435
-39.3087	165.303	8.77271
-39.3043	161.88	8.84106
-39.2966	165.355	8.90942
-39.2914	173.308	8.97778
-39.2859	174.765	9.04614
-39.28162	180.364	9.114502
-39.274	185.802	9.18286
-39.2692	189.721	9.25122
-39.2633	189.156	9.31958
-39.2579	193.9874	9.38794
-39.2512	196.117	9.4563
-39.2459	193.561	9.52466
-39.2411	195.774	9.59302
-39.2354	200.003	9.661377
-39.2291	205.831	9.72974
-39.22271	209.597	9.7981
-39.218	215.724	9.86646
-39.2124	217.688	9.93481
-39.2061	221.28	10.0032
-39.2005	225.595	10.0715
-39.1956	226.358	10.1399
-39.1893	225.6358	10.2083
-39.1831	227.709	10.2766
-39.17836	231.992	10.345
-39.1735	236.12	10.41333
-39.1665	242.115	10.4817
-39.1615	246.094	10.55
-39.1547	248.2	10.6184
-39.1494	251.914	10.6868
-39.1436	257.807	10.7551
-39.1385	259.178	10.8235
-39.1328	258.695	10.8918
-39.1269	258.8414	10.9602
-39.1218	261.127	11.0286
-39.1159	267.0416	11.0969
-39.1108	270.925	11.1653
-39.1048	272.18	11.2336
-39.098	277.242	11.302
-39.0936	282.046	11.3704
-39.0868	287.428	11.4387
-39.0814	288.007	11.50708
-39.0745	290.1904	11.5754
-39.0707	290.5683	11.6438
-39.0639	290.728	11.7122
-39.0583	295.954	11.7805
-39.0526	299.95	11.8489
-39.0471	299.801	11.9172
-39.0415	303.551	11.9856
-39.0362	312.024	12.054
-39.02998	315.924	12.1223
-39.0252	315.895	12.1907
-39.0194	319.8793	12.259
-39.01329	321.006	12.3274
-39.00816	321.266	12.3958
-39.0017	323.919	12.4641
-38.9958	326.989	12.5325
-38.99	325.309	12.60083
-38.9844	331.426	12.6692
-38.9787	340.1824	12.7375
-38.9723	342.86	12.8059
-38.9683	344.217	12.8743
-38.96088	348.068	12.9426
-38.9557	349.421	13.011
-38.95145	350.211	13.0793
-38.94545	352.986	13.1477
-38.9394	353.37	13.2161
-38.9334	351.858	13.2844
-38.9271	357.466	13.3528
-38.9221	365.504	13.4211
-38.9151	366.1145	13.4895
-38.9106	369.648	13.5579
-38.9043	375.6543	13.6262
-38.8992	378.145	13.69458
-38.8929	378.408	13.7629
-38.888	380.145	13.8313
-38.88168	380.528	13.8997
-38.877	378.778	13.968
-38.8709	382.171	14.0364
-38.8652	388.644	14.1047
-38.859	392.303	14.1731
-38.8539	395.521	14.2415
-38.8475	400.546	14.3098
-38.8411	404.518	14.3782
-38.8358	404.851	14.4465
-38.831	405.312	14.5149
-38.8252	404.8851	14.5833
-38.8199	405.656	14.6516
-38.8131	406.926	14.72
-38.807	412.9917	14.78833
-38.8015	414.692	14.8567
-38.7964	420.151	14.925
-38.791	423.894	14.9934
-38.7853	429.282	15.0618
-38.7786	430.976	15.1301
-38.7743	431.93	15.1985
-38.7671	429.058	15.2668
-38.7634	428.386	15.3352
-38.7578	433.815	15.4036
-38.751	434.7948	15.4719
-38.74535	437.602	15.5403
-38.7393	441.914	15.6086
-38.7341	444.4599	15.677
-38.7287	450.364	15.7454
-38.7219	453.786	15.8137
-38.7163	453.1532	15.88208
-38.7115	449.588	15.9504
-38.7061	452.752	16.0188
-38.7007	455.182	16.0872
-38.6952	453.8685	16.1555
-38.6881	455.958	16.2239
-38.6834	460.781	16.2922
-38.6768	461.295	16.3606
-38.6709	467.444	16.429
-38.6657	472.9917	16.4973
-38.6585	472.191	16.5657
-38.6544	470.267	16.634
-38.6483	471.928	16.7024
-38.643	473.601	16.7708
-38.6382	469.293	16.8391
-38.6321	471.694	16.9075
-38.6263	476.168	16.97583
-38.6198	477.781	17.0442
-38.6142	481.373	17.1125
-38.6083	487.543	17.1809
-38.6024	487.182	17.2493
-38.5976	485.083	17.3176
-38.5904	489.428	17.386
-38.5855	489.515	17.4543
-38.5809	484.354	17.5227
-38.5748	487.537	17.5911
-38.5685	490.042	17.6594
-38.5627	489.125	17.7278
-38.557	491.758	17.7961
-38.5513	497.089	17.8645
-38.5463	497.245	17.9329
-38.5396	496.4473	18.0012
-38.5342	500.601	18.06958
-38.5289	498.635	18.1379
-38.52372	493.666	18.2063
-38.5187	493.947	18.2747
-38.5114	495.141	18.343
-38.50655	494.26	18.4114
-38.5008	496.469	18.4797
-38.4945	500.416	18.5481
-38.4894	500.466	18.6165
-38.4831	499.7355	18.6848
-38.4787	505.506	18.7532
-38.4722	503.052	18.8215
-38.4663	501.3125	18.8899
-38.4606	497.311	18.9583
-38.4554	495.342	19.0266
-38.4494	498.2514	19.095
-38.44347	497.619	19.16333
-38.4378	498.2	19.2317
-38.43219	498.254	19.3
-38.4262	501	19.3684
-38.4211	502.729	19.4368
-38.4152	502.4917	19.5051
-38.4092	498.773	19.5735
-38.4041	498.537	19.6418
-38.398	494.7587	19.7102
-38.393	495.16	19.7786
-38.3851	495.512	19.8469
-38.3804	493.218	19.9153
-38.3747	493.625	19.9836
-38.3724	499.522	20.0129

Data Header:			0.254_hd_uprint_typeiv_4545_r0			Time:	40.0181	s	4/13/2019 7:55:52 PM
Data Acquisition:	Timed
Station Name:	ft40.cfg
Test File Name:	monotonic_0.2540_typeiv_hd_4545_uprint.tst
Displacement	Force	Running Time
mm	N	s
-38.3718	492.1665	20.0227
-38.3665	491.355	20.0911
-38.3596	492.424	20.1594
-38.3546	493.723	20.2278
-38.34808	495.467	20.2961
-38.3445	497.3718	20.3645
-38.3381	497.886	20.4329
-38.331	497.565	20.5012
-38.326	499.603	20.56958
-38.31879	496.409	20.6379
-38.3155	493.098	20.7063
-38.3092	492.119	20.7747
-38.3031	490.393	20.843
-38.2982	492.246	20.9114
-38.2922	492.697	20.9797
-38.2868	494.144	21.0481
-38.28	493.552	21.1165
-38.2741	496.177	21.1848
-38.2696	496.89	21.2532
-38.2638	496.019	21.3215
-38.2575	493.396	21.3899
-38.251	490.36	21.4583
-38.2465	487.737	21.5266
-38.2411	490.278	21.595
-38.2352	490.376	21.66333
-38.2289	489.819	21.7317
-38.2232	491.288	21.8
-38.2183	494.137	21.8684
-38.2127	495.563	21.9368
-38.2077	494.99	22.0051
-38.2001	492.733	22.0735
-38.1958	491.806	22.1418
-38.189	486.353	22.2102
-38.1829	488.699	22.2786
-38.17823	489.2908	22.3469
-38.1731	486.388	22.4153
-38.16732	488.156	22.4836
-38.162	491.964	22.552
-38.1547	494.544	22.6204
-38.1491	491.782	22.6887
-38.1435	493.12	22.75708
-38.1399	492.026	22.8254
-38.1328	487.661	22.8938
-38.1256	489.107	22.9622
-38.1212	487.3717	23.0305
-38.1149	485.05	23.0989
-38.1096	484.793	23.1672
-38.10461	490.37	23.2356
-38.0984	491.692	23.304
-38.0927	489.601	23.3723
-38.08699	493.255	23.4407
-38.0811	492.852	23.509
-38.0754	490.007	23.5774
-38.0706	487.3186	23.6458
-38.0641	489.824	23.7141
-38.0586	484.427	23.7825
-38.0531	483.926	23.85083
-38.0469	489.14	23.9192
-38.0414	490.119	23.9875
-38.036	488.565	24.0559
-38.0304	492.2691	24.1243
-38.0254	492.568	24.1926
-38.019	491.7403	24.261
-38.0126	488.962	24.3293
-38.0065	489.945	24.3977
-38.00219	484.622	24.4661
-37.9961	481.627	24.5344
-37.9898	486.185	24.6028
-37.9847	486.276	24.6711
-37.9791	488.24	24.7395
-37.97332	491.073	24.8079
-37.9672	490.174	24.8762
-37.9614	490.283	24.94458
-37.9555	489.4852	25.0129
-37.9505	487.493	25.0813
-37.9454	483.7142	25.1497
-37.9398	481.384	25.218
-37.9336	483.944	25.2864
-37.9276	484.35	25.3547
-37.9215	486.1705	25.4231
-37.9162	488.392	25.4915
-37.91	489.808	25.5598
-37.9051	492.411	25.6282
-37.8989	490.029	25.6965
-37.8933	485.931	25.7649
-37.8875	483.174	25.8333
-37.8825	482.244	25.9016
-37.877	482.717	25.97
-37.8714	481.156	26.03833
-37.8642	483.5386	26.1067
-37.85807	487.075	26.175
-37.8533	484.958	26.2434
-37.8475	489.954	26.3118
-37.842	492.06	26.3801
-37.8362	487.818	26.4485
-37.8305	482.553	26.5168
-37.8256	483.928	26.5852
-37.8187	483.155	26.6536
-37.8139	479.581	26.7219
-37.80772	483.243	26.7903
-37.80188	485.542	26.8586
-37.7959	484.641	26.927
-37.7908	489.509	26.9954
-37.7848	490.689	27.0637
-37.7786	486.922	27.13208
-37.7738	483.438	27.2004
-37.7684	486.742	27.2688
-37.7619	483.386	27.3372
-37.7559	479.69	27.4055
-37.7515	481.452	27.4739
-37.74519	484.172	27.5422
-37.7396	483.678	27.6106
-37.7335	487.985	27.679
-37.7286	490.132	27.7473
-37.7223	487.864	27.8157
-37.7164	483.986	27.884
-37.7112	487.2142	27.9524
-37.7057	482.913	28.0208
-37.6995	481.041	28.0891
-37.6944	481.08	28.1575
-37.6889	481.014	28.22583
-37.6815	484.094	28.2942
-37.6778	485.845	28.3625
-37.6713	487.6373	28.4309
-37.6649	487.328	28.4993
-37.6601	484.371	28.5676
-37.6549	486.988	28.636
-37.6494	484.305	28.7043
-37.6429	480.059	28.7727
-37.6376	480.304	28.8411
-37.6315	479.26	28.9094
-37.6249	483.107	28.9778
-37.6194	481.739	29.0461
-37.6149	485.16	29.1145
-37.6082	484.6156	29.1829
-37.60358	485.48	29.2512
-37.59811	489	29.31958
-37.5923	484.494	29.3879
-37.5854	482.391	29.4563
-37.5801	479.126	29.5247
-37.5731	477.8931	29.593
-37.5685	479.744	29.6614
-37.5627	481.903	29.7297
-37.5573	482.6604	29.7981
-37.5518	483.355	29.8665
-37.5466	485.025	29.9348
-37.5407	486.517	30.0032
-37.5345	485.114	30.0715
-37.5292	482.82	30.1399
-37.5235	482.563	30.2083
-37.5175	478.74	30.2766
-37.5119	480.596	30.345
-37.5064	482.158	30.41333
-37.5006	481.6727	30.4817
-37.4949	480.85	30.55
-37.4896	484.403	30.6184
-37.4839	489.243	30.6868
-37.478	485.151	30.7551
-37.472	485.086	30.8235
-37.4657	482.668	30.8918
-37.45985	478.473	30.9602
-37.4546	479.732	31.0286
-37.4496	479.648	31.0969
-37.44381	478.521	31.1653
-37.438	478.107	31.2336
-37.4316	483.351	31.302
-37.4258	486.77	31.3704
-37.4204	483.645	31.4387
-37.415	485.147	31.50708
-37.4097	485.319	31.5754
-37.403	481.688	31.6438
-37.3975	479.705	31.7122
-37.39259	479.298	31.7805
-37.3858	478.726	31.8489
-37.3802	476.642	31.9172
-37.3745	481.686	31.9856
-37.3697	485.613	32.054
-37.3635	483.306	32.1223
-37.3577	483.711	32.1907
-37.3532	485.2446	32.259
-37.3466	482.101	32.3274
-37.3414	479.392	32.3958
-37.3354	480.519	32.4641
-37.3301	477.51	32.5325
-37.32325	476.044	32.60083
-37.3172	479.005	32.6692
-37.3123	481.665	32.7375
-37.3065	482.582	32.8059
-37.3006	482.937	32.8743
-37.295	485.632	32.9426
-37.2893	482.909	33.011
-37.2838	481.137	33.0793
-37.2781	480.179	33.1477
-37.2739	476.968	33.2161
-37.2671	475.513	33.2844
-37.2609	479.338	33.3528
-37.25573	480.225	33.4211
-37.2501	481.495	33.4895
-37.244	483.81	33.5579
-37.2383	483.2876	33.6262
-37.2326	483.367	33.69458
-37.2258	483.23	33.7629
-37.2214	479.875	33.8313
-37.2159	475.964	33.8997
-37.2101	474.632	33.968
-37.2039	478.33	34.0364
-37.1987	478.525	34.1047
-37.1933	478.053	34.1731
-37.187	482.728	34.2415
-37.1809	481.232	34.3098
-37.1759	482.144	34.3782
-37.1689	484.873	34.4465
-37.1642	481.227	34.5149
-37.158	475.6951	34.5833
-37.1533	474.079	34.6516
-37.14679	476.946	34.72
-37.1409	475.5817	34.78833
-37.1355	475.478	34.8567
-37.1294	481.344	34.925
-37.1251	481.594	34.9934
-37.1193	483.607	35.0618
-37.1129	483.693	35.1301
-37.1061	482.7547	35.1985
-37.1015	476.943	35.2668
-37.0956	475.983	35.3352
-37.0891	476.965	35.4036
-37.0836	476.021	35.4719
-37.07888	472.91	35.5403
-37.0726	478.042	35.6086
-37.0673	479.346	35.677
-37.06081	480.1673	35.7454
-37.0566	482.501	35.8137
-37.05	483.768	35.88208
-37.0449	477.073	35.9504
-37.0383	475.171	36.0188
-37.0321	477.856	36.0872
-37.0277	474.4115	36.1555
-37.02124	472.414	36.2239
-37.0152	474.2988	36.2922
-37.01033	476.322	36.3606
-37.0047	481.176	36.429
-36.9978	481.15	36.4973
-36.9937	481.569	36.5657
-36.9878	477.57	36.634
-36.9813	476.564	36.7024
-36.9759	477.4014	36.7708
-36.9713	473.797	36.8391
-36.9646	471.857	36.9075
-36.959	473.837	36.97583
-36.9533	473.965	37.0442
-36.9473	477.173	37.1125
-36.9429	480.02	37.1809
-36.9366	479.234	37.2493
-36.9309	477.2576	37.3176
-36.9242	478.8786	37.386
-36.9187	477.236	37.4543
-36.9137	472.85	37.5227
-36.9075	471.806	37.5911
-36.9013	472.013	37.6594
-36.8955	470.031	37.7278
-36.8902	476.0177	37.7961
-36.88504	478.111	37.8645
-36.8786	479.23	37.9329
-36.8725	475.582	38.0012
-36.8675	478.048	38.06958
-36.8617	477.296	38.1379
-36.8571	473.981	38.2063
-36.8515	472.428	38.2747
-36.8445	471.384	38.343
-36.8395	470.903	38.4114
-36.8338	471.7171	38.4797
-36.828	475.277	38.5481
-36.8226	475.9996	38.6165
-36.8164	474.449	38.6848
-36.81078	477.687	38.7532
-36.8044	477.976	38.8215
-36.7985	473.2	38.8899
-36.7943	470.85	38.9583
-36.7877	471.1431	39.0266
-36.7822	466.742	39.095
-36.7771	470.932	39.16333
-36.7715	474.651	39.2317
-36.7656	471.475	39.3
-36.75967	472.458	39.3684
-36.7544	476.637	39.4368
-36.7477	476.792	39.5051
-36.7422	473.365	39.5735
-36.7376	470.399	39.6418
-36.7316	470.834	39.7102
-36.7252	468.3356	39.7786
-36.7199	467.102	39.8469
-36.7142	469.749	39.9153
-36.7086	468.843	39.9836
-36.7058	471.6701	40.0129

Data Header:			0.254_hd_uprint_typeiv_4545_r0			Time:	43.1367	s	4/13/2019 7:55:55 PM
Data Acquisition:	Timed
Station Name:	ft40.cfg
Test File Name:	monotonic_0.2540_typeiv_hd_4545_uprint.tst
Displacement	Force	Running Time
mm	N	s
-36.7057	467.831	40.0227
-36.7042	466.998	40.0422
-36.7017	472.3027	40.0618
-36.7	471.76	40.0813
-36.6991	464.5462	40.10083
-36.6961	473.28	40.1204
-36.6957	471.539	40.1399
-36.6933	467.1817	40.1594
-36.6909	473.125	40.179
-36.6911	472.959	40.1985
-36.6895	463.556	40.218
-36.6872	472.868	40.2375
-36.6856	472.051	40.25708
-36.6847	466.592	40.2766
-36.68227	469.317	40.2961
-36.6805	474.88	40.3157
-36.6796	465.242	40.3352
-36.677	469.315	40.3547
-36.6763	470.586	40.3743
-36.6738	468.585	40.3938
-36.673	466.666	40.41333
-36.671	471.879	40.4329
-36.6684	465.845	40.4524
-36.6678	464.398	40.4719
-36.6661	468.545	40.4915
-36.6641	470.5105	40.511
-36.66283	464.579	40.5305
-36.6604	467.602	40.55
-36.65937	469.732	40.56958
-36.6577	464.981	40.5891
-36.6552	467.257	40.6086
-36.6534	468.877	40.6282
-36.6527	464.998	40.6477
-36.6512	462.568	40.6672
-36.6486	469.762	40.6868
-36.6481	465.539	40.7063
-36.6464	462.583	40.72583
-36.645	467.966	40.7454
-36.6429	468.272	40.7649
-36.6406	458.956	40.7844
-36.64	467.892	40.804
-36.6382	465.111	40.8235
-36.6367	460.3992	40.843
-36.6352	465.077	40.8625
-36.6323	469.666	40.88208
-36.63076	457.817	40.9016
-36.6308	464.162	40.9211
-36.6278	465.814	40.9407
-36.6274	459.116	40.9602
-36.6255	458.588	40.9797
-36.6235	465.618	40.9993
-36.6221	457.028	41.0188
-36.6203	455.832	41.03833
-36.6188	459.921	41.0579
-36.6174	454.812	41.0774
-36.6145	452.011	41.0969
-36.6141	456.917	41.1165
-36.6124	451.727	41.136
-36.6109	445.373	41.1555
-36.6083	445.691	41.175
-36.6052	-17.7612	41.19458
-36.6034	-52.5398	41.2141
-36.60284	-43.6806	41.2336
-36.6016	-41.0135	41.2532
-36.5997	-44.6526	41.2727
-36.5992	-43.96	41.2922
-36.597	-39.0959	41.3118
-36.5944	-42.266	41.3313
-36.59346	-45.631	41.35083
-36.5911	-36.2821	41.3704
-36.5905	-39.794	41.3899
-36.5895	-45.9441	41.4094
-36.5874	-40.24881	41.429
-36.5862	-38.0148	41.4485
-36.5849	-46.42765	41.468
-36.5829	-40.3841	41.4875
-36.5811	-40.6555	41.50708
-36.5802	-44.8728	41.5266
-36.57822	-40.0116	41.5461
-36.5764	-36.9488	41.5657
-36.5738	-46.612	41.5852
-36.5718	-44.627	41.6047
-36.5707	-39.14003	41.6243
-36.5694	-41.3355	41.6438
-36.569	-44.5038	41.66333
-36.5668	-38.1864	41.6829
-36.5654	-43.6268	41.7024
-36.5631	-44.153	41.7219
-36.5627	-40.5814	41.7415
-36.56094	-41.1111	41.761
-36.5579	-44.9979	41.7805
-36.5566	-40.6241	41.8
-36.5548	-38.7762	41.81958
-36.5535	-44.6732	41.8391
-36.5518	-44.1832	41.8586
-36.5501	-37.947	41.8782
-36.5485	-41.4191	41.8977
-36.5469	-45.4482	41.9172
-36.5448	-40.5049	41.9368
-36.5436	-43.4925	41.9563
-36.5419	-45.0529	41.97583
-36.5404	-39.7729	41.9954
-36.5384	-40.6695	42.0149
-36.5383	-47.7983	42.0344
-36.536	-38.6022	42.054
-36.5345	-40.8869	42.0735
-36.5317	-44.1153	42.093
-36.5299	-42.6064	42.1125
-36.5281	-36.847	42.13208
-36.5274	-46.3326	42.1516
-36.5257	-40.3728	42.1711
-36.524	-39.4801	42.1907
-36.5226	-44.4662	42.2102
-36.52055	-41.549	42.2297
-36.5196	-37.77459	42.2493
-36.5176	-44.3675	42.2688
-36.5153	-45.8393	42.28833
-36.5144	-41.89241	42.3079
-36.513	-40.2005	42.3274
-36.51004	-45.567	42.3469
-36.5089	-40.7135	42.3665
-36.5075	-43.9052	42.386
-36.5073	-43.4054	42.4055
-36.5051	-41.626	42.425
-36.504	-40.3895	42.44458
-36.5012	-46.3883	42.4641
-36.5002	-44.67976	42.4836
-36.498	-40.1748	42.5032
-36.4966	-43.7465	42.5227
-36.495	-45.3391	42.5422
-36.4923	-41.166	42.5618
-36.4913	-42.30056	42.5813
-36.4904	-46.4141	42.60083
-36.4879	-39.5435	42.6204
-36.48624	-42.2962	42.6399
-36.486	-45.909	42.6594
-36.4837	-41.6241	42.679
-36.4823	-37.7653	42.6985
-36.48024	-49.228	42.718
-36.4786	-41.9742	42.7375
-36.4767	-41.1089	42.75708
-36.4759	-43.9776	42.7766
-36.4732	-43.297	42.7961
-36.4719	-38.1913	42.8157
-36.4713	-46.1846	42.8352
-36.4688	-41.6843	42.8547
-36.4671	-39.5608	42.8743
-36.465	-42.72258	42.8938
-36.4649	-45.9308	42.91333
-36.4627	-36.6876	42.9329
-36.4612	-42.843	42.9524
-36.4593	-45.62772	42.9719
-36.458	-41.8393	42.9915
-36.4554	-40.3478	43.011
-36.4545	-44.7802	43.0305
-36.4521	-41.2743	43.05
-36.452	-43.467	43.06958
-36.4488	-45.3103	43.0891
-36.4482	-45.07962	43.1086
-36.4466	-38.7526	43.1282