File: data/processed_data_files/tensile/0.254_solid_dimension_typeiv_4545_r(3).dat
MTS793|BTW|ENU|1|2|.|/|:|1|0|0|A

Data Header:			0.254_solid_dimension_typeiv_4545_r0			Time:	20.0173	s	4/13/2019 8:38:08 PM
Data Acquisition:	Timed
Station Name:	ft40.cfg
Test File Name:	monotonic_0.2540_typeiv_solid_4545_dimension.tst
Displacement	Force	Running Time
mm	N	s
-40.0343	-233.883	0.0222168
-40.0315	-231.592	0.0905762
-40.0263	-229.871	0.158936
-40.0201	-223.965	0.227295
-40.0166	-222.373	0.2956543
-40.0077	-215.004	0.364014
-40.0023	-208.9288	0.432373
-39.9967	-203.998	0.500732
-39.9915	-199.799	0.5690918
-39.9861	-195.95	0.637451
-39.9807	-195.981	0.705811
-39.9752	-191.364	0.77417
-39.9704	-187.691	0.8425293
-39.9632	-187.719	0.910889
-39.9572	-184.621	0.979248
-39.95118	-178.445	1.04761
-39.9455	-170.272	1.11597
-39.9409	-166.292	1.18433
-39.9346	-162.63	1.25269
-39.9298	-156.026	1.32104
-39.9227	-155.934	1.3894
-39.9176	-150.148	1.45776
-39.912	-146.334	1.526123
-39.9057	-147.205	1.59448
-39.9002	-146.033	1.66284
-39.8949	-139.688	1.7312
-39.8894	-130.657	1.79956
-39.8839	-128.787	1.86792
-39.8775	-122.647	1.93628
-39.8723	-117.336	2.00464
-39.8669	-114.091	2.072998
-39.8611	-112.4257	2.14136
-39.8559	-107.211	2.20972
-39.8493	-106.915	2.27808
-39.8445	-107.425	2.34644
-39.83844	-101.49	2.41479
-39.8327	-93.2153	2.48315
-39.8271	-90.154	2.55151
-39.821	-85.28611	2.619873
-39.8158	-75.9297	2.68823
-39.8083	-74.6201	2.75659
-39.8033	-70.1972	2.82495
-39.7984	-67.5896	2.89331
-39.7918	-66.764	2.96167
-39.7866	-66.5815	3.03003
-39.7813	-62.7611	3.09839
-39.7751	-53.8684	3.166748
-39.7708	-49.8527	3.23511
-39.7633	-45.834	3.30347
-39.7585	-37.658	3.37183
-39.752	-34.7689	3.44019
-39.7469	-31.5221	3.50854
-39.741	-27.7848	3.5769
-39.7363	-27.9673	3.64526
-39.7292	-24.7778	3.713623
-39.7248	-21.8281	3.78198
-39.71793	-15.9445	3.85034
-39.7126	-12.6346	3.9187
-39.7068	-5.94439	3.98706
-39.7012	-1.84976	4.05542
-39.6959	3.42939	4.12378
-39.6902	9.69295	4.19214
-39.68515	13.5744	4.260498
-39.6787	14.7882	4.32886
-39.6735	15.1757	4.39722
-39.6669	20.5191	4.46558
-39.6613	22.7674	4.53394
-39.657	26.38736	4.60229
-39.65	32.4332	4.67065
-39.6444	38.7363	4.73901
-39.63887	42.082	4.807373
-39.6339	50.0286	4.87573
-39.6281	54.2065	4.94409
-39.6216	54.5553	5.01245
-39.616	56.0164	5.08081
-39.6095	62.4958	5.14917
-39.6048	65.34404	5.21753
-39.59885	64.8277	5.28589
-39.5938	71.2703	5.354248
-39.5868	77.491	5.42261
-39.5822	79.9412	5.49097
-39.5761	87.33567	5.55933
-39.5711	93.8726	5.62769
-39.5654	94.8227	5.69604
-39.5585	96.94	5.7644
-39.55262	101.176	5.83276
-39.5479	104.95	5.901123
-39.5411	105.525	5.96948
-39.53648	110.102	6.03784
-39.5303	115.759	6.1062
-39.5256	120.025	6.17456
-39.5192	125.857	6.24292
-39.5135	132.7345	6.31128
-39.5073	134.7453	6.37964
-39.5012	134.834	6.447998
-39.4975	142.639	6.51636
-39.4897	146.525	6.58472
-39.48447	145.597	6.65308
-39.4795	149.545	6.72144
-39.4744	154.706	6.78979
-39.4676	157.837	6.85815
-39.4626	162.472	6.92651
-39.4563	168.873	6.994873
-39.4523	174.192	7.06323
-39.4456	176.083	7.13159
-39.4397	180.576	7.19995
-39.4343	185.546	7.26831
-39.4291	186.014	7.33667
-39.4235	188.602	7.40503
-39.4169	191.159	7.47339
-39.4123	197.7717	7.541748
-39.4068	202.2982	7.61011
-39.4005	207.102	7.67847
-39.3928	209.907	7.74683
-39.3882	214.363	7.81519
-39.3831	221.8963	7.88354
-39.3781	223.2522	7.9519
-39.372	224.543	8.02026
-39.3649	227.095	8.088623
-39.36124	228.458	8.15698
-39.354	234.136	8.22534
-39.3478	239.373	8.2937
-39.34314	242.781	8.36206
-39.337	245.451	8.43042
-39.3313	250.415	8.49878
-39.3262	259.281	8.56714
-39.3202	261.668	8.635498
-39.314	264.416	8.70386
-39.3076	266.525	8.77222
-39.3033	268.225	8.84058
-39.2976	269.532	8.90894
-39.292	274.44	8.97729
-39.2856	280.3544	9.04565
-39.2805	281.111	9.11401
-39.27475	288.142	9.182373
-39.2695	296.255	9.25073
-39.2632	297.993	9.31909
-39.2568	301.211	9.38745
-39.2509	306.176	9.45581
-39.24667	305.421	9.52417
-39.2422	307.062	9.59253
-39.2344	310.15	9.66089
-39.2294	316.436	9.729248
-39.2246	316.812	9.79761
-39.218	321.903	9.86597
-39.2121	331.66	9.93433
-39.2069	336.548	10.0027
-39.20026	337.689	10.071
-39.1945	342.3504	10.1394
-39.189	345.028	10.2078
-39.1834	346.29	10.2761
-39.178	346.824	10.3445
-39.1733	351.795	10.4128
-39.1663	352.693	10.4812
-39.1605	357.739	10.5496
-39.1562	366.28	10.61792
-39.148	372.007	10.6863
-39.1434	375.455	10.7546
-39.13768	378.5	10.823
-39.1322	378.895	10.8914
-39.1262	382.752	10.9597
-39.1219	384.45	11.0281
-39.1145	386.813	11.0964
-39.1105	388.481	11.1648
-39.1029	391.184	11.2332
-39.0976	400.451	11.3015
-39.0931	402.703	11.3699
-39.0878	408.736	11.4382
-39.0809	414.4646	11.5066
-39.0744	415.663	11.575
-39.0698	417.8873	11.6433
-39.0635	421.252	11.71167
-39.0583	421.014	11.78
-39.0523	422.6972	11.8484
-39.0463	424.828	11.9167
-39.0413	432.077	11.9851
-39.03545	436.738	12.0535
-39.0299	442.571	12.1218
-39.02494	447.2561	12.1902
-39.0182	449.32	12.2585
-39.0129	452.1615	12.3269
-39.0068	454.931	12.3953
-39.0015	454.026	12.4636
-38.9948	453.211	12.532
-38.99181	456.514	12.6003
-38.9851	462.968	12.6687
-38.9782	467.788	12.7371
-38.9727	470.292	12.80542
-38.9669	479.59	12.8738
-38.9617	480.962	12.9421
-38.9558	484.15	13.0105
-38.9506	486.207	13.0789
-38.9435	486.656	13.1472
-38.9392	484.1546	13.2156
-38.9344	487.08	13.2839
-38.9271	495.045	13.3523
-38.9214	494.691	13.4207
-38.9154	499.688	13.489
-38.9093	506.174	13.5574
-38.9045	510.053	13.6257
-38.8986	511.809	13.6941
-38.89188	514.992	13.7625
-38.8874	515.8537	13.8308
-38.8834	514.274	13.89917
-38.87561	514.979	13.9675
-38.8712	522.134	14.0359
-38.8635	523.418	14.1042
-38.8587	525.341	14.1726
-38.8538	532.695	14.241
-38.8482	535.998	14.3093
-38.8415	541.314	14.3777
-38.8362	542.791	14.446
-38.8304	543.12	14.5144
-38.824	541.202	14.5828
-38.8198	542.689	14.6511
-38.8134	545.647	14.7195
-38.8083	547.2912	14.7878
-38.8022	549.597	14.8562
-38.7966	554.328	14.9246
-38.79147	556.7301	14.99292
-38.7847	562.161	15.0613
-38.779	563.8028	15.1296
-38.7733	564.744	15.198
-38.7678	562.175	15.2664
-38.76173	563.134	15.3347
-38.7573	566.309	15.4031
-38.7508	567.287	15.4714
-38.74527	568.079	15.5398
-38.739	570.747	15.6082
-38.734	571.795	15.6765
-38.7291	577.926	15.7449
-38.7211	580.805	15.8132
-38.7159	580.665	15.8816
-38.7109	579.797	15.95
-38.7061	579.571	16.0183
-38.6985	581.875	16.08667
-38.6939	578.351	16.155
-38.688	579.854	16.2234
-38.6831	582.31	16.2917
-38.6768	581.557	16.3601
-38.67128	584.202	16.4285
-38.6661	590.383	16.4968
-38.66	588.5603	16.5652
-38.6541	584.954	16.6335
-38.6477	587.589	16.7019
-38.6421	588.971	16.7703
-38.6365	585.427	16.8386
-38.6308	584.732	16.907
-38.6251	585.343	16.9753
-38.6199	584.243	17.0437
-38.6151	586.85	17.1121
-38.6092	590.661	17.18042
-38.6037	589.932	17.2488
-38.5964	588.245	17.3171
-38.59074	589.28	17.3855
-38.5848	589.374	17.4539
-38.581	585.208	17.5222
-38.57399	585.709	17.5906
-38.5691	586.52	17.6589
-38.5637	584.138	17.7273
-38.5585	586.182	17.7957
-38.5516	587.27	17.864
-38.5464	587.103	17.9324
-38.5396	585.888	18.0007
-38.5358	587.83	18.0691
-38.529	588.298	18.1375
-38.52314	585.747	18.2058
-38.5177	582.976	18.27417
-38.5107	583.186	18.3425
-38.5063	579.4494	18.4109
-38.5009	580.5434	18.4792
-38.4946	581.243	18.5476
-38.4894	582.284	18.616
-38.4818	583.525	18.6843
-38.4771	584.582	18.7527
-38.4714	585.235	18.821
-38.4666	582.672	18.8894
-38.4594	581.597	18.9578
-38.4548	579.032	19.0261
-38.44841	575.982	19.0945
-38.4435	578.61	19.1628
-38.4364	578.437	19.2312
-38.4322	574.914	19.2996
-38.4247	576.537	19.36792
-38.41967	581.227	19.4363
-38.4155	582.371	19.5046
-38.4088	579.5459	19.573
-38.4031	578.94	19.6414
-38.3987	576.33	19.7097
-38.3912	573.785	19.7781
-38.3875	573.6073	19.8464
-38.3805	573.971	19.9148
-38.37516	572.49	19.9832
-38.3715	578.333	20.0125

Data Header:			0.254_solid_dimension_typeiv_4545_r0			Time:	40.0176	s	4/13/2019 8:38:28 PM
Data Acquisition:	Timed
Station Name:	ft40.cfg
Test File Name:	monotonic_0.2540_typeiv_solid_4545_dimension.tst
Displacement	Force	Running Time
mm	N	s
-38.3713	573.979	20.0222
-38.365	572.167	20.0906
-38.36092	572.089	20.1589
-38.3538	571.273	20.2273
-38.3488	572.264	20.2957
-38.3428	573.345	20.364
-38.3377	573.332	20.4324
-38.3321	572.691	20.5007
-38.3268	573.77	20.5691
-38.3204	575.118	20.6375
-38.3139	570.94	20.7058
-38.3091	569.6062	20.77417
-38.3033	569.454	20.8425
-38.2978	565.6546	20.9109
-38.2917	568.081	20.9792
-38.2862	569.544	21.0476
-38.2804	570.501	21.116
-38.2745	567.859	21.1843
-38.2683	571.9314	21.2527
-38.2633	573.2	21.321
-38.2574	569.4361	21.3894
-38.2515	567.264	21.4578
-38.24514	568.51	21.5261
-38.241	565.257	21.5945
-38.235	563.594	21.6628
-38.2291	566.573	21.7312
-38.2242	567.1604	21.7996
-38.2175	565.1051	21.86792
-38.21188	566.227	21.9363
-38.2071	572.659	22.0046
-38.2003	568.926	22.073
-38.1945	567.474	22.1414
-38.1899	567.53	22.2097
-38.1834	564.138	22.2781
-38.177	562.1333	22.3464
-38.1719	563.226	22.4148
-38.167	564.677	22.4832
-38.1611	561.7359	22.5515
-38.1548	564.577	22.6199
-38.1492	569.712	22.6882
-38.144	567.202	22.7566
-38.1384	564.608	22.825
-38.1332	564.731	22.8933
-38.1263	562.764	22.96167
-38.1209	561.744	23.03
-38.1152	560.485	23.0984
-38.1106	559.798	23.1667
-38.1046	559.445	23.2351
-38.0978	561.626	23.3035
-38.09137	565.552	23.3718
-38.0865	566.371	23.4402
-38.0805	565.693	23.5085
-38.0747	564.633	23.5769
-38.0696	561.132	23.6453
-38.06472	561.077	23.7136
-38.0579	558.844	23.782
-38.0532	557.465	23.8503
-38.0472	555.558	23.9187
-38.0411	558.987	23.9871
-38.0353	561.8136	24.05542
-38.0301	564.16	24.1238
-38.0245	564.663	24.1921
-38.0181	563.864	24.2605
-38.0127	560.396	24.3289
-38.0069	561.543	24.3972
-38.0009	558.6991	24.4656
-37.9955	555.985	24.5339
-37.9897	554.721	24.6023
-37.9835	557.054	24.6707
-37.9782	560.268	24.739
-37.9727	559.742	24.8074
-37.9668	563.273	24.8757
-37.9615	562.4469	24.9441
-37.956	561.203	25.0125
-37.9499	560.822	25.0808
-37.9444	558.726	25.14917
-37.9382	555.744	25.2175
-37.9317	551.611	25.2859
-37.9273	555.441	25.3542
-37.922	559.553	25.4226
-37.9163	557.435	25.491
-37.9101	558.884	25.5593
-37.9051	562.499	25.6277
-37.8995	560.087	25.696
-37.8926	559.204	25.7644
-37.8863	559.78	25.8328
-37.8829	552.54	25.9011
-37.8767	550.3208	25.9695
-37.8699	552.56	26.0378
-37.8636	555.512	26.1062
-37.8588	554.963	26.1746
-37.85321	557.978	26.24292
-37.8483	559.702	26.3113
-37.8414	559.072	26.3796
-37.8363	560.108	26.448
-37.8306	559.584	26.5164
-37.82444	554.4278	26.5847
-37.8193	550.502	26.6531
-37.8141	553.15	26.7214
-37.8081	553.453	26.7898
-37.8016	552.136	26.8582
-37.79546	554.959	26.9265
-37.7894	557.4	26.9949
-37.7846	558.577	27.0632
-37.7787	558.894	27.1316
-37.7728	557.975	27.2
-37.7671	553.9527	27.2683
-37.7619	550.856	27.33667
-37.7559	552.534	27.405
-37.7514	550.781	27.4734
-37.7444	550.454	27.5417
-37.7386	551.812	27.6101
-37.73357	552.692	27.6785
-37.7273	557.097	27.7468
-37.7224	557.807	27.8152
-37.7163	557.071	27.8835
-37.7103	553.68	27.9519
-37.7049	551.7713	28.0203
-37.6984	552.559	28.0886
-37.6941	551.336	28.157
-37.6884	551.834	28.2253
-37.6821	552.474	28.2937
-37.6766	552.272	28.3621
-37.6705	555.338	28.43042
-37.6653	557.036	28.4988
-37.6595	555.834	28.5671
-37.653	551.752	28.6355
-37.6484	553.349	28.7039
-37.6428	553.831	28.7722
-37.6364	550.259	28.8406
-37.63055	549.879	28.9089
-37.6251	549.611	28.9773
-37.6201	549.285	29.0457
-37.6142	551.67	29.114
-37.6079	556.854	29.1824
-37.6025	555.4007	29.2507
-37.5963	552.415	29.3191
-37.5921	552.374	29.3875
-37.5842	554.645	29.4558
-37.5804	550.099	29.52417
-37.5742	548.203	29.5925
-37.5689	551.015	29.6609
-37.5629	549.548	29.7292
-37.5556	549.685	29.7976
-37.551	552.114	29.866
-37.5461	553.943	29.9343
-37.5401	550.804	30.0027
-37.5332	554.0097	30.071
-37.5286	555.601	30.1394
-37.5225	550.473	30.2078
-37.5169	550.082	30.2761
-37.5119	548.103	30.3445
-37.5053	546.201	30.4128
-37.4996	548.202	30.4812
-37.4943	550.05	30.5496
-37.4879	550.73	30.61792
-37.483	549.695	30.6863
-37.477	551.248	30.7546
-37.4715	554.763	30.823
-37.4652	551.511	30.8914
-37.4608	549.78	30.9597
-37.4535	550.03	31.0281
-37.448	549.019	31.0964
-37.4431	547.593	31.1648
-37.4371	548.63	31.2332
-37.4315	549.565	31.3015
-37.4245	550.0119	31.3699
-37.4205	551.158	31.4382
-37.4135	554.248	31.5066
-37.4088	552.857	31.575
-37.4033	550.534	31.6433
-37.3963	548.498	31.71167
-37.3914	547.6	31.78
-37.3854	548.163	31.8484
-37.3804	547.771	31.9167
-37.3737	545.992	31.9851
-37.3695	546.975	32.0535
-37.3628	552.032	32.1218
-37.3565	551.32	32.1902
-37.3512	552.457	32.2585
-37.3463	552.17	32.3269
-37.3411	549.828	32.3953
-37.3344	546.898	32.4636
-37.3287	546.732	32.532
-37.3234	546.478	32.6003
-37.3162	543.887	32.6687
-37.3122	545.217	32.7371
-37.3061	550.04	32.80542
-37.3012	551.047	32.8738
-37.2947	551.997	32.9421
-37.2891	553.2262	33.0105
-37.2837	550.336	33.0789
-37.2769	548.907	33.1472
-37.2723	547.75	33.2156
-37.2657	546.285	33.2839
-37.26	542.528	33.3523
-37.2555	543.446	33.4207
-37.2495	549.086	33.489
-37.2442	550.432	33.5574
-37.2384	549.9566	33.6257
-37.2326	552.929	33.6941
-37.2268	551.09	33.7625
-37.2195	547.73	33.8308
-37.2159	546.604	33.89917
-37.2098	546.583	33.9675
-37.2036	540.178	34.0359
-37.1978	540.999	34.1042
-37.1919	546.953	34.1726
-37.1866	548.446	34.241
-37.18095	547.764	34.3093
-37.1755	551.92	34.3777
-37.16951	550.8233	34.446
-37.1641	549.41	34.5144
-37.158	549.406	34.5828
-37.1521	545.95	34.6511
-37.1459	542.26	34.7195
-37.1426	541.317	34.7878
-37.1346	546.287	34.8562
-37.1298	546.413	34.9246
-37.1236	548.769	34.99292
-37.11742	550.926	35.0613
-37.1141	550.642	35.1296
-37.1053	551.201	35.198
-37.1007	549.78	35.2664
-37.0942	546.725	35.3347
-37.0902	543.012	35.4031
-37.0834	542.995	35.4714
-37.0784	547.097	35.5398
-37.0712	545.476	35.6082
-37.0676	546.981	35.6765
-37.0615	549.339	35.7449
-37.055	550.7572	35.8132
-37.0489	550.472	35.8816
-37.0447	552.045	35.95
-37.0381	549.125	36.0183
-37.0331	542.4884	36.08667
-37.028	544.419	36.155
-37.021	544.071	36.2234
-37.0156	544.039	36.2917
-37.0101	545.72	36.3601
-37.0051	547.3783	36.4285
-36.9979	548.803	36.4968
-36.9941	551.248	36.5652
-36.9863	551.903	36.6335
-36.9812	547.871	36.7019
-36.9768	545.177	36.7703
-36.971	547.038	36.8386
-36.9652	543.539	36.907
-36.9581	542.348	36.9753
-36.9522	544.4425	37.0437
-36.9478	545.5235	37.1121
-36.9404	546.618	37.18042
-36.9362	550.404	37.2488
-36.9301	551.498	37.3171
-36.924	545.889	37.3855
-36.9177	544.413	37.4539
-36.9125	547.553	37.5222
-36.9076	544.556	37.5906
-36.9021	540.937	37.6589
-36.8962	544.447	37.7273
-36.8917	543.334	37.7957
-36.8843	544.294	37.864
-36.8786	549.195	37.9324
-36.8725	550.059	38.0007
-36.8677	548.062	38.0691
-36.863	544.043	38.1375
-36.8569	547.914	38.2058
-36.8507	545.834	38.27417
-36.8434	542.682	38.3425
-36.8393	544.0271	38.4109
-36.8326	543.654	38.4792
-36.8271	544.141	38.5476
-36.8214	546.1546	38.616
-36.8162	548.4411	38.6843
-36.81	545.652	38.7527
-36.8045	547.302	38.821
-36.7979	548.686	38.8894
-36.793	546.452	38.9578
-36.7885	543.159	39.0261
-36.7829	542.02	39.0945
-36.7765	540.392	39.1628
-36.7707	543.409	39.2312
-36.7652	543.521	39.2996
-36.7594	546.001	39.36792
-36.7539	545.021	39.4363
-36.7478	546.562	39.5046
-36.7421	549.585	39.573
-36.737	545.662	39.6414
-36.7308	543.819	39.7097
-36.7258	543.899	39.7781
-36.7199	542.881	39.8464
-36.7136	542.389	39.9148
-36.70673	544.027	39.9832
-36.7059	546.4425	40.0125

Data Header:			0.254_solid_dimension_typeiv_4545_r0			Time:	56.3796	s	4/13/2019 8:38:44 PM
Data Acquisition:	Timed
Station Name:	ft40.cfg
Test File Name:	monotonic_0.2540_typeiv_solid_4545_dimension.tst
Displacement	Force	Running Time
mm	N	s
-36.7032	547.57	40.0222
-36.6995	546.906	40.0808
-36.6951	551.4834	40.1394
-36.6897	548.875	40.198
-36.6848	548.953	40.2566
-36.6804	548.284	40.3152
-36.6756	548.89	40.3738
-36.6699	547.013	40.4324
-36.6657	545.904	40.491
-36.6608	545.347	40.5496
-36.65609	541.463	40.6082
-36.6507	543.977	40.6667
-36.6453	542.0871	40.7253
-36.6413	541.318	40.7839
-36.6361	541.119	40.8425
-36.6312	543.149	40.9011
-36.6272	544.85	40.9597
-36.62204	543.488	41.0183
-36.6164	548.572	41.0769
-36.6124	544.8891	41.1355
-36.6069	548.986	41.1941
-36.6015	545.915	41.2527
-36.5979	547.81	41.3113
-36.5922	542.561	41.3699
-36.5876	545.486	41.4285
-36.5832	539.874	41.4871
-36.5778	540.887	41.5457
-36.5731	539.275	41.6042
-36.5693	540.125	41.6628
-36.5625	539.679	41.7214
-36.5576	543.0224	41.78
-36.5542	544.635	41.8386
-36.5495	542.883	41.8972
-36.5437	547.088	41.9558
-36.5377	547.149	42.0144
-36.5348	548.157	42.073
-36.5294	548.384	42.1316
-36.5247	548.015	42.1902
-36.5189	545.9256	42.2488
-36.5143	545.74	42.3074
-36.5098	544.695	42.366
-36.5039	541.357	42.4246
-36.4992	542.795	42.4832
-36.4947	541.837	42.5417
-36.4893	540.187	42.6003
-36.4854	540.428	42.6589
-36.4797	542.101	42.7175
-36.4749	541.236	42.7761
-36.4712	543.398	42.8347
-36.4653	546.8689	42.8933
-36.4605	542.988	42.9519
-36.455	549.186	43.0105
-36.4511	545.337	43.0691
-36.4475	546.068	43.1277
-36.4404	543.815	43.1863
-36.4362	545.648	43.2449
-36.4312	539.903	43.3035
-36.4253	541.664	43.3621
-36.42144	538.485	43.4207
-36.4165	540.477	43.4792
-36.4114	539.143	43.5378
-36.4067	541.639	43.5964
-36.402	542.199	43.655
-36.3976	542.509	43.7136
-36.392	546.192	43.7722
-36.3867	545.623	43.8308
-36.38271	546.537	43.8894
-36.3774	547.891	43.948
-36.3724	546.952	44.0066
-36.368	546.994	44.0652
-36.3635	545.91	44.1238
-36.3571	544.837	44.1824
-36.3531	542.696	44.241
-36.3479	542.054	44.2996
-36.3433	539.985	44.3582
-36.3393	539.469	44.4167
-36.3326	538.77	44.4753
-36.3283	539.398	44.5339
-36.3238	540.1825	44.5925
-36.3196	541.233	44.6511
-36.3134	543.75	44.7097
-36.3084	540.752	44.7683
-36.3045	545.623	44.8269
-36.2987	543.23	44.8855
-36.2943	545.279	44.9441
-36.2899	543.393	45.0027
-36.2851	546.518	45.0613
-36.2807	542.353	45.1199
-36.2747	541.603	45.1785
-36.2701	538.6015	45.2371
-36.2658	539.061	45.2957
-36.2606	538.081	45.3542
-36.2564	540.203	45.4128
-36.24976	539.81	45.4714
-36.2459	539.635	45.53
-36.24065	543.609	45.5886
-36.2357	542.601	45.6472
-36.2304	544.306	45.7058
-36.226	545.944	45.7644
-36.2217	547.55	45.823
-36.216	546.046	45.8816
-36.2115	545.699	45.9402
-36.2071	545.226	45.9988
-36.20182	542.928	46.0574
-36.1969	544.12	46.116
-36.1919	539.322	46.1746
-36.1879	539.266	46.2332
-36.1805	537.928	46.2917
-36.1782	539.078	46.3503
-36.1716	539.48	46.4089
-36.167	539.244	46.4675
-36.1624	541.573	46.5261
-36.1573	537.997	46.5847
-36.1523	543.823	46.6433
-36.1491	541.732	46.7019
-36.1429	545.213	46.7605
-36.1392	541.5271	46.8191
-36.1332	545.998	46.8777
-36.1275	540.738	46.9363
-36.1233	543.729	46.9949
-36.1175	540.595	47.0535
-36.11385	540.097	47.1121
-36.108	538.881	47.1707
-36.1044	536.935	47.2292
-36.09856	538.041	47.2878
-36.0931	538.101	47.3464
-36.08952	541.72	47.405
-36.0847	539.886	47.4636
-36.0793	542.883	47.5222
-36.0745	543.367	47.5808
-36.0694	544.458	47.6394
-36.0657	543.3374	47.698
-36.06	545.258	47.7566
-36.0554	546.083	47.8152
-36.0503	542.366	47.8738
-36.04641	545.405	47.9324
-36.0408	540.817	47.991
-36.0358	540.045	48.0496
-36.031	538.594	48.1082
-36.027	538.281	48.1667
-36.021	535.065	48.2253
-36.0164	536.382	48.2839
-36.0111	540.044	48.3425
-36.0062	535.307	48.4011
-36.0011	541.914	48.4597
-35.99712	540.288	48.5183
-35.9923	543.739	48.5769
-35.9856	542.357	48.6355
-35.9829	545.9126	48.6941
-35.9771	540.937	48.7527
-35.972	542.51	48.8113
-35.9679	540.014	48.8699
-35.9622	538.079	48.9285
-35.9576	537.943	48.9871
-35.9524	537.311	49.0457
-35.9484	536.564	49.1042
-35.943	537.49	49.1628
-35.9385	538.961	49.2214
-35.933	537.982	49.28
-35.9274	539.727	49.3386
-35.9227	541.494	49.3972
-35.9176	541.247	49.4558
-35.9137	541.805	49.5144
-35.9084	542.442	49.573
-35.9037	544.572	49.6316
-35.8989	541.987	49.6902
-35.89473	543.903	49.7488
-35.8897	540.0871	49.8074
-35.88364	542.157	49.866
-35.8791	537.511	49.9246
-35.87402	537.287	49.9832
-35.8708	534.42	50.0417
-35.86467	534.489	50.1003
-35.8602	535.902	50.1589
-35.85553	533.796	50.2175
-35.8496	537.977	50.2761
-35.8448	537.588	50.3347
-35.84	540.189	50.3933
-35.8344	539.0174	50.4519
-35.83033	543.812	50.5105
-35.8243	538.508	50.5691
-35.8212	541.308	50.6277
-35.8163	538.191	50.6863
-35.8102	538.207	50.7449
-35.806	535.0957	50.8035
-35.8017	535.313	50.8621
-35.7965	537.117	50.9207
-35.7917	534.176	50.9792
-35.78738	535.77	51.0378
-35.7816	533.0686	51.0964
-35.77631	534.9906	51.155
-35.772	536.214	51.2136
-35.7669	536.324	51.2722
-35.76189	538.899	51.3308
-35.7565	539.5	51.3894
-35.7522	541.2547	51.448
-35.7486	539.447	51.5066
-35.7429	541.9978	51.5652
-35.73801	537.4	51.6238
-35.7327	537.055	51.6824
-35.72842	536.113	51.741
-35.7233	535.093	51.7996
-35.7186	531.258	51.8582
-35.713	532.88	51.9167
-35.7081	532.586	51.9753
-35.704	529.703	52.0339
-35.69804	535.215	52.0925
-35.6943	530.497	52.1511
-35.6897	536.142	52.2097
-35.6837	533.777	52.2683
-35.6782	536.798	52.3269
-35.6734	533.92	52.3855
-35.6691	537.216	52.4441
-35.6648	534.938	52.5027
-35.65852	533.917	52.5613
-35.6543	534.153	52.6199
-35.6501	529.588	52.6785
-35.646	527.974	52.7371
-35.6409	525.601	52.7957
-35.6346	524.291	52.8542
-35.6303	519.726	52.9128
-35.6246	517.282	52.9714
-35.622	511.376	53.03
-35.6157	504.966	53.0886
-35.6075	-45.2101	53.1472
-35.60601	-40.62545	53.2058
-35.6004	-39.5926	53.2644
-35.5958	-38.663	53.323
-35.5904	-36.71582	53.3816
-35.5851	-41.4255	53.4402
-35.5814	-40.0114	53.4988
-35.5759	-41.4216	53.5574
-35.5718	-42.2529	53.616
-35.56712	-43.8148	53.6746
-35.5628	-45.0349	53.7332
-35.5572	-45.5913	53.7917
-35.5515	-48.4189	53.8503
-35.5466	-43.149	53.9089
-35.5428	-46.7027	53.9675
-35.53764	-43.0852	54.0261
-35.5322	-45.4541	54.0847
-35.5271	-41.5071	54.1433
-35.5221	-44.0651	54.2019
-35.5187	-39.4846	54.2605
-35.5124	-41.0741	54.3191
-35.5077	-39.5868	54.3777
-35.5035	-42.5262	54.4363
-35.4988	-41.0128	54.4949
-35.4932	-43.5708	54.5535
-35.4887	-44.0395	54.6121
-35.4829	-44.7649	54.6707
-35.4783	-46.1523	54.7292
-35.4729	-44.4707	54.7878
-35.4698	-45.075	54.8464
-35.4639	-43.6669	54.905
-35.45927	-42.4161	54.9636
-35.4541	-42.3627	55.0222
-35.4496	-41.5441	55.0808
-35.4448	-39.7699	55.1394
-35.44	-37.5867	55.198
-35.4345	-41.166	55.2566
-35.43	-39.2328	55.3152
-35.4251	-39.1636	55.3738
-35.4195	-41.7014	55.4324
-35.4145	-43.1789	55.491
-35.4107	-42.776	55.5496
-35.4057	-45.2271	55.6082
-35.40073	-47.7301	55.6667
-35.3969	-43.99567	55.7253
-35.3903	-48.1811	55.7839
-35.386	-43.7007	55.8425
-35.3807	-46.2728	55.9011
-35.3765	-41.1533	55.9597
-35.3714	-45.0589	56.0183
-35.3664	-38.7531	56.0769
-35.36063	-39.6503	56.1355
-35.3567	-39.6882	56.1941
-35.3527	-40.2986	56.2527
-35.3473	-39.7241	56.3113
-35.3426	-41.529	56.3699