File: data/processed_data_files/tensile/0.254_solid_uprint_typeiv_090_r(2).dat
MTS793|BTW|ENU|1|2|.|/|:|1|0|0|A

Data Header:			0.254_solid_uprint_typeiv_090_r0			Time:	20.0269	s	4/14/2019 1:02:36 AM
Data Acquisition:	Timed
Station Name:	ft40.cfg
Test File Name:	monotonic_0.2540_typeiv_solid_090_uprint.tst
Displacement	Force	Running Time
mm	N	s
-40.0385	-101.408	0.0317383
-40.0394	-101.867	0.100098
-40.0322	-93.7601	0.168457
-40.0263	-90.5987	0.236816
-40.0207	-85.7646	0.305176
-40.0177	-79.3543	0.373535
-40.0099	-75.5381	0.441895
-40.0036	-71.3749	0.510254
-39.9987	-70.44017	0.578613
-39.9937	-72.1232	0.646973
-39.9877	-70.37793	0.715332
-39.9819	-64.8893	0.783691
-39.9766	-60.9985	0.852051
-39.9706	-56.1277	0.92041
-39.9642	-51.1554	0.98877
-39.9583	-47.3018	1.05713
-39.9522	-42.3421	1.12549
-39.94717	-37.2049	1.19385
-39.9422	-36.063	1.262207
-39.9356	-37.1535	1.33057
-39.9313	-32.529	1.39893
-39.9245	-30.2021	1.46729
-39.9194	-27.8113	1.53564
-39.9139	-25.198	1.604
-39.90781	-18.3967	1.67236
-39.9018	-15.7613	1.74072
-39.89645	-6.43405	1.809082
-39.891	-3.80604	1.87744
-39.8854	-1.73448	1.9458
-39.8794	-2.00173	2.01416
-39.8739	2.14808	2.08252
-39.8681	6.06625	2.15088
-39.8632	5.413012	2.21924
-39.8561	9.44349	2.2876
-39.8497	16.4404	2.355957
-39.84528	17.1075	2.42432
-39.8388	27.2685	2.49268
-39.8342	30.38715	2.56104
-39.8277	32.0321	2.62939
-39.8235	32.7163	2.69775
-39.8166	40.01667	2.76611
-39.811	38.0328	2.83447
-39.8048	39.08115	2.902832
-39.799	44.1263	2.97119
-39.7938	47.1736	3.03955
-39.7878	52.3658	3.10791
-39.782	59.0226	3.17627
-39.777	62.9436	3.24463
-39.77108	65.0914	3.31299
-39.7649	68.5376	3.38135
-39.7591	74.4602	3.449707
-39.7538	74.6088	3.51807
-39.7472	73.51226	3.58643
-39.7418	77.8751	3.65479
-39.7368	80.136	3.72314
-39.7312	83.78373	3.7915
-39.7258	91.2677	3.85986
-39.7206	95.1324	3.92822
-39.7144	96.7679	3.996582
-39.7079	101.322	4.06494
-39.7032	109.089	4.1333
-39.6971	106.762	4.20166
-39.6909	108.919	4.27002
-39.6858	112.097	4.33838
-39.6802	113.4158	4.40674
-39.67392	116.586	4.4751
-39.6682	124.679	4.543457
-39.6626	127.706	4.61182
-39.6575	128.186	4.68018
-39.6506	135.317	4.74854
-39.6462	140.486	4.81689
-39.6395	141.143	4.88525
-39.6344	142.348	4.95361
-39.6306	145.368	5.02197
-39.6237	146.8586	5.090332
-39.617	149.58	5.15869
-39.6116	155.067	5.22705
-39.6065	157.594	5.29541
-39.5988	159.316	5.36377
-39.595	166.969	5.43213
-39.5889	173.097	5.50049
-39.5825	172.084	5.56885
-39.5781	177.455	5.637207
-39.5723	178.945	5.70557
-39.5666	179.298	5.77393
-39.5606	181.943	5.84229
-39.5547	185.671	5.91064
-39.5488	185.496	5.979
-39.5425	190.556	6.04736
-39.5381	198.686	6.11572
-39.5327	202.893	6.184082
-39.5255	204.171	6.25244
-39.52103	208.3501	6.3208
-39.5147	209.431	6.38916
-39.509	213.414	6.45752
-39.5043	214.101	6.52588
-39.4976	216.034	6.59424
-39.4923	215.565	6.6626
-39.4872	220.928	6.730957
-39.4804	228.57	6.79932
-39.4761	233.876	6.86768
-39.4693	236.701	6.93604
-39.46384	241.15	7.00439
-39.4578	241.132	7.07275
-39.4525	246.516	7.14111
-39.44751	244.789	7.20947
-39.4404	245.181	7.277832
-39.4345	246.298	7.34619
-39.4282	252.25	7.41455
-39.4228	257.2514	7.48291
-39.4181	261.37	7.55127
-39.4124	266.715	7.61963
-39.407	270.654	7.68799
-39.4008	273.035	7.75635
-39.3952	277.508	7.824707
-39.39027	277.395	7.89307
-39.3834	276.904	7.96143
-39.3769	276.681	8.02979
-39.3725	282.757	8.09814
-39.3665	284.34	8.1665
-39.36211	288.781	8.23486
-39.3557	295.598	8.30322
-39.3499	298.846	8.371582
-39.3432	303.541	8.43994
-39.3387	306.968	8.5083
-39.33252	305.228	8.57666
-39.3275	304.005	8.64502
-39.3213	307.209	8.71338
-39.31543	310.219	8.78174
-39.3098	311.835	8.8501
-39.305	316.364	8.918457
-39.2984	321.712	8.98682
-39.2918	323.884	9.05518
-39.2865	330.518	9.12354
-39.2819	332.66	9.19189
-39.2757	332.299	9.26025
-39.2709	331.698	9.32861
-39.2649	336.274	9.39697
-39.2578	337.489	9.465332
-39.2531	335.1738	9.53369
-39.247	340.999	9.60205
-39.2411	345.283	9.67041
-39.2367	347.524	9.73877
-39.231	354.708	9.80713
-39.2241	358.369	9.87549
-39.2197	356.87	9.94385
-39.2127	358.178	10.0122
-39.2073	362.366	10.0806
-39.20195	361.655	10.1489
-39.1966	360.265	10.2173
-39.1906	365.132	10.2856
-39.1846	368.504	10.354
-39.1797	372.257	10.4224
-39.1726	377.046	10.4907
-39.1685	381.112	10.5591
-39.1608	379.07	10.6274
-39.1557	382.146	10.6958
-39.1495	386.9751	10.76416
-39.14563	384.159	10.83252
-39.1402	384.266	10.9009
-39.1322	387.012	10.9692
-39.1283	388.208	11.0376
-39.1223	390.649	11.106
-39.1156	395.889	11.1743
-39.1108	399.238	11.2427
-39.1048	397.464	11.311
-39.0993	403.327	11.3794
-39.0928	407.9624	11.4478
-39.0878	402.48	11.5161
-39.082	405.8147	11.5845
-39.07589	405.448	11.6528
-39.0703	405.828	11.7212
-39.0653	407.32	11.7896
-39.0594	413.285	11.85791
-39.0536	414.592	11.92627
-39.0475	413.292	11.9946
-39.043	418.6514	12.063
-39.0361	421.438	12.1313
-39.031	420.832	12.1997
-39.024	419.21	12.2681
-39.0191	419.955	12.3364
-39.0147	418.053	12.4048
-39.0085	420.092	12.4731
-39.0028	423.0723	12.5415
-38.9968	423.22	12.6099
-38.9924	424.593	12.6782
-38.9853	429.406	12.7466
-38.9797	431.662	12.8149
-38.9734	431.786	12.8833
-38.9678	430.709	12.95166
-38.9621	429.699	13.02002
-38.956	430.139	13.0884
-38.95155	429.0954	13.1567
-38.9453	428.941	13.2251
-38.9401	428.484	13.2935
-38.9336	431.293	13.3618
-38.9289	434.57	13.4302
-38.9226	436.244	13.4985
-38.9177	437.19	13.5669
-38.9121	434.946	13.6353
-38.905	433.994	13.7036
-38.8995	434.059	13.772
-38.89423	432.8866	13.8403
-38.8892	430.8129	13.9087
-38.8823	430.5343	13.9771
-38.87587	433.51	14.04541
-38.8714	436.883	14.11377
-38.8656	436.932	14.1821
-38.85968	438.1759	14.2505
-38.85527	439.437	14.3188
-38.8486	437.135	14.3872
-38.8436	437.209	14.4556
-38.8377	434.161	14.5239
-38.8304	431.819	14.5923
-38.8267	429.21	14.6606
-38.8201	433.46	14.729
-38.8147	435.253	14.7974
-38.8092	435.958	14.8657
-38.803	439.372	14.9341
-38.797	438.069	15.0024
-38.7916	438.221	15.0708
-38.7866	437.488	15.13916
-38.7797	436.199	15.20752
-38.7742	428.5954	15.2759
-38.7698	430.149	15.3442
-38.76376	432.128	15.4126
-38.7575	431.085	15.481
-38.7521	431.9989	15.5493
-38.7455	435.308	15.6177
-38.7414	434.506	15.686
-38.7349	436.807	15.7544
-38.7298	436.475	15.8228
-38.7233	432.279	15.8911
-38.7177	426.874	15.9595
-38.71143	427.095	16.0278
-38.7065	429.495	16.0962
-38.6994	426.0921	16.1646
-38.6933	428.365	16.23291
-38.6889	431.799	16.30127
-38.6836	430.6315	16.3696
-38.6778	432.991	16.438
-38.6717	435.759	16.5063
-38.66592	430.768	16.5747
-38.6609	425.293	16.6431
-38.6546	427.3891	16.7114
-38.6491	427.104	16.7798
-38.6429	422.628	16.8481
-38.6381	425.397	16.9165
-38.6327	427.71	16.9849
-38.6268	427.652	17.0532
-38.6209	430.843	17.1216
-38.6152	433.332	17.1899
-38.6095	427.9823	17.2583
-38.6032	424.811	17.32666
-38.5976	426.558	17.39502
-38.5917	424.6861	17.4634
-38.5873	419.732	17.5317
-38.5795	421.445	17.6001
-38.575	424.42	17.6685
-38.5702	423.815	17.7368
-38.5629	427.799	17.8052
-38.5585	430.609	17.8735
-38.55286	425.0105	17.9419
-38.54668	426.112	18.0103
-38.54147	428.016	18.0786
-38.5353	423.802	18.147
-38.5301	419.211	18.2153
-38.5244	421.15	18.2837
-38.5179	419.671	18.3521
-38.5129	421.587	18.42041
-38.506	424.966	18.48877
-38.5016	425.18	18.5571
-38.495	422.93	18.6255
-38.49	424.624	18.6938
-38.4841	428.167	18.7622
-38.4777	422.701	18.8306
-38.4718	421.407	18.8989
-38.4677	420.482	18.9673
-38.4608	418.69	19.0356
-38.4566	419.246	19.104
-38.4489	423.041	19.1724
-38.4448	423.936	19.2407
-38.4394	422.975	19.3091
-38.4323	425.62	19.3774
-38.42617	425.188	19.4458
-38.4211	424.307	19.51416
-38.4157	420.393	19.58252
-38.4091	421.274	19.6509
-38.4036	420.089	19.7192
-38.3988	419.63	19.7876
-38.3933	420.253	19.856
-38.3874	421.5538	19.9243
-38.38261	421.717	19.9927
-38.3784	421.508	20.022

Data Header:			0.254_solid_uprint_typeiv_090_r0			Time:	26.7058	s	4/14/2019 1:02:43 AM
Data Acquisition:	Timed
Station Name:	ft40.cfg
Test File Name:	monotonic_0.2540_typeiv_solid_090_uprint.tst
Displacement	Force	Running Time
mm	N	s
-38.3782	417.667	20.0317
-38.376	426.321	20.061
-38.3728	417.48	20.0903
-38.37	423.229	20.1196
-38.3684	420.381	20.1489
-38.3661	422.9292	20.1782
-38.3647	418.858	20.20752
-38.3616	422.247	20.2368
-38.35873	421.971	20.2661
-38.3575	419.587	20.29541
-38.353	422.1991	20.3247
-38.3516	419.457	20.354
-38.3489	425.971	20.3833
-38.3459	417.0928	20.4126
-38.344	420.559	20.4419
-38.3427	418.065	20.4712
-38.3377	424.814	20.5005
-38.3366	418.134	20.5298
-38.334	422.391	20.5591
-38.3322	420.001	20.5884
-38.3302	422.2048	20.6177
-38.3264	418.982	20.647
-38.3249	419.152	20.67627
-38.3214	423.78	20.7056
-38.3189	419.851	20.7349
-38.317	421.054	20.76416
-38.3152	417.084	20.7935
-38.3129	424.254	20.8228
-38.3095	416.951	20.8521
-38.3074	423.531	20.8813
-38.3058	418.904	20.9106
-38.3034	424.99	20.9399
-38.3005	416.873	20.9692
-38.29752	424.579	20.9985
-38.2949	418.258	21.0278
-38.2937	421.241	21.0571
-38.2898	419.711	21.0864
-38.28809	422.452	21.1157
-38.286	420.678	21.14502
-38.2827	416.921	21.1743
-38.28117	421.096	21.2036
-38.2792	419.1	21.23291
-38.2763	423.93	21.2622
-38.2736	415.503	21.2915
-38.2717	425.703	21.3208
-38.2688	416.238	21.3501
-38.2659	421.778	21.3794
-38.2637	415.3772	21.4087
-38.2614	425.815	21.438
-38.2588	417.9444	21.4673
-38.2566	422.149	21.4966
-38.254	415.258	21.5259
-38.252	423.063	21.5552
-38.249	419.826	21.5845
-38.2456	420.641	21.61377
-38.245	420.276	21.6431
-38.2417	423.588	21.6724
-38.23888	421.601	21.70166
-38.2369	417.906	21.731
-38.2346	422.305	21.7603
-38.23209	418.6864	21.7896
-38.2287	425.286	21.8188
-38.2262	416.384	21.8481
-38.2249	425.126	21.8774
-38.2219	415.658	21.9067
-38.2195	423.328	21.936
-38.2178	420.543	21.9653
-38.2143	425.07	21.9946
-38.21167	417.876	22.0239
-38.2111	422.535	22.0532
-38.2079	419.503	22.08252
-38.2055	419.504	22.1118
-38.2024	417.614	22.1411
-38.2004	419.87	22.17041
-38.19812	423.135	22.1997
-38.1953	418.601	22.229
-38.1925	419.159	22.2583
-38.1907	416.5889	22.2876
-38.1889	422.135	22.3169
-38.1851	414.14	22.3462
-38.183	419.901	22.3755
-38.1815	417.306	22.4048
-38.1774	422.2673	22.4341
-38.1752	414.332	22.4634
-38.1724	419.6373	22.4927
-38.1716	419.625	22.522
-38.1677	419.597	22.55127
-38.16555	419.892	22.5806
-38.1639	420.406	22.6099
-38.1605	421.233	22.63916
-38.1583	416.6	22.6685
-38.1558	422.042	22.6978
-38.1532	418.796	22.7271
-38.151	422.3895	22.7563
-38.1502	416.771	22.7856
-38.145	421.8591	22.8149
-38.1434	416.704	22.8442
-38.1417	419.451	22.8735
-38.1377	417.0661	22.9028
-38.137	422.142	22.9321
-38.1337	419.1123	22.9614
-38.1316	418.094	22.9907
-38.1293	418.82	23.02002
-38.127	418.854	23.0493
-38.1247	420.492	23.0786
-38.1206	414.6156	23.10791
-38.1204	423.721	23.1372
-38.1174	416.332	23.1665
-38.1149	419.121	23.1958
-38.112	412.04	23.2251
-38.1091	424.055	23.2544
-38.1068	413.512	23.2837
-38.1052	420.697	23.313
-38.1037	413.956	23.3423
-38.1005	422.869	23.3716
-38.0964	413.505	23.4009
-38.0948	418.571	23.4302
-38.0925	417.927	23.4595
-38.0899	419.076	23.48877
-38.088	416.735	23.5181
-38.0853	415.313	23.5474
-38.0821	419.548	23.57666
-38.0797	414.26	23.606
-38.0777	420.787	23.6353
-38.0754	414.823	23.6646
-38.07177	423.066	23.6938
-38.0704	411.6972	23.7231
-38.0682	421.737	23.7524
-38.0646	414.288	23.7817
-38.0634	420.117	23.811
-38.0599	413.164	23.8403
-38.0583	419.801	23.8696
-38.0569	415.519	23.8989
-38.0531	416.968	23.9282
-38.0523	412.374	23.95752
-38.04895	416.398	23.9868
-38.04567	418.904	24.0161
-38.0442	414.67	24.04541
-38.0421	416.366	24.0747
-38.0387	415.46	24.104
-38.0365	417.7218	24.1333
-38.0341	411.099	24.1626
-38.0312	418.071	24.1919
-38.0289	414.398	24.2212
-38.0261	417.767	24.2505
-38.024	411.508	24.2798
-38.0223	416.703	24.3091
-38.0188	413.303	24.3384
-38.0173	415.11	24.3677
-38.0147	413.4	24.397
-38.0121	415.23	24.42627
-38.0095	415.615	24.4556
-38.0074	412.138	24.4849
-38.005	414.43	24.51416
-38.002	412.727	24.5435
-37.9994	416.49	24.5728
-37.99778	411.653	24.6021
-37.9949	417.034	24.6313
-37.9931	410.235	24.6606
-37.9896	412.517	24.6899
-37.9877	409.413	24.7192
-37.9845	415.351	24.7485
-37.9826	409.262	24.7778
-37.9801	410.105	24.8071
-37.97813	407.766	24.8364
-37.9748	405.499	24.8657
-37.9699	-23.2537	24.89502
-37.9687	-39.9154	24.9243
-37.9661	-37.8336	24.9536
-37.9642	-40.8871	24.98291
-37.9627	-38.5853	25.0122
-37.96003	-42.8065	25.0415
-37.9574	-36.1447	25.0708
-37.9548	-43.1748	25.1001
-37.9532	-37.28175	25.1294
-37.9504	-44.6442	25.1587
-37.9482	-36.0181	25.188
-37.9459	-45.054	25.2173
-37.9431	-38.6099	25.2466
-37.9412	-42.23983	25.2759
-37.9379	-37.726	25.3052
-37.9358	-39.5558	25.3345
-37.9336	-40.13644	25.36377
-37.9314	-38.04348	25.3931
-37.9286	-42.3029	25.4224
-37.927	-39.1983	25.45166
-37.924	-41.9138	25.481
-37.92207	-34.8574	25.5103
-37.9191	-44.9053	25.5396
-37.9166	-35.9269	25.5688
-37.9147	-45.12558	25.5981
-37.9114	-36.9051	25.6274
-37.9106	-45.9433	25.6567
-37.907	-36.6328	25.686
-37.9047	-42.7469	25.7153
-37.9022	-39.075	25.7446
-37.8997	-46.2291	25.7739
-37.897	-40.3903	25.8032
-37.8944	-40.5567	25.83252
-37.8913	-40.1436	25.8618
-37.8896	-41.41732	25.8911
-37.888	-41.3994	25.92041
-37.8853	-39.6465	25.9497
-37.8822	-46.51088	25.979
-37.8802	-39.29493	26.0083
-37.8785	-43.6874	26.0376
-37.87468	-37.3563	26.0669
-37.8733	-45.98587	26.0962
-37.8718	-36.6378	26.1255
-37.8675	-43.70092	26.1548
-37.86602	-40.2672	26.1841
-37.8641	-43.6423	26.2134
-37.8607	-38.5913	26.2427
-37.8578	-42.8019	26.272
-37.8557	-39.133	26.30127
-37.8534	-40.8791	26.3306
-37.8504	-41.6849	26.3599
-37.84845	-41.7825	26.38916
-37.8455	-43.8125	26.4185
-37.84341	-35.5081	26.4478
-37.8411	-41.3989	26.4771
-37.8381	-39.96405	26.5063
-37.8352	-42.8215	26.5356
-37.8335	-37.4006	26.5649
-37.832	-44.285	26.5942
-37.8295	-39.3998	26.6235
-37.82634	-41.3327	26.6528
-37.8234	-38.4264	26.6821
-37.8226	-38.2241	26.6919