File: data/processed_data_files/tensile/0.254_solid_dimension_typeiv_090_r(4).dat
MTS793|BTW|ENU|1|2|.|/|:|1|0|0|A

Data Header:			0.254_solid_dimension_typeiv_090_r0			Time:	20.0176	s	4/14/2019 1:43:05 AM
Data Acquisition:	Timed
Station Name:	ft40.cfg
Test File Name:	monotonic_0.2540_typeiv_solid_090_dimension.tst
Displacement	Force	Running Time
mm	N	s
-40.0424	-308.504	0.0227051
-40.0403	-310.223	0.0910645
-40.033	-308.609	0.159424
-40.0281	-299.719	0.2277832
-40.0218	-299.517	0.296143
-40.0176	-301.615	0.364502
-40.0113	-296.959	0.432861
-40.0056	-295.568	0.5012207
-40.0004	-292.954	0.56958
-39.9944	-286.132	0.637939
-39.9886	-281.855	0.706299
-39.9836	-280.19	0.7746582
-39.9777	-276.847	0.843018
-39.9725	-269.5134	0.911377
-39.9657	-268.106	0.979736
-39.9618	-269.201	1.0481
-39.9548	-265.552	1.11646
-39.9502	-262.724	1.18481
-39.9436	-260.282	1.25317
-39.9384	-257.78	1.32153
-39.9312	-250.652	1.38989
-39.9254	-249.8951	1.458252
-39.9207	-244.105	1.52661
-39.9146	-236.228	1.59497
-39.909	-235.495	1.66333
-39.9037	-233.642	1.73169
-39.8966	-231.217	1.80005
-39.893	-229.769	1.86841
-39.88644	-227.919	1.93677
-39.8817	-223.3232	2.005127
-39.875	-221.95	2.07349
-39.8683	-217.201	2.14185
-39.8633	-209.471	2.21021
-39.8591	-204.936	2.27856
-39.8519	-202.469	2.34692
-39.8467	-199.734	2.41528
-39.84053	-194.619	2.48364
-39.8354	-194.719	2.552002
-39.8298	-191.486	2.62036
-39.8244	-189.033	2.68872
-39.8177	-186.634	2.75708
-39.8124	-183.692	2.82544
-39.8064	-176.274	2.8938
-39.8015	-172.112	2.96216
-39.7956	-168.345	3.03052
-39.7897	-163.977	3.098877
-39.7838	-160.76	3.16724
-39.7798	-157.677	3.2356
-39.7735	-155.834	3.30396
-39.76701	-154.163	3.37231
-39.7627	-153.843	3.44067
-39.7552	-149.725	3.50903
-39.7503	-143.286	3.57739
-39.7446	-137.966	3.645752
-39.7399	-134.031	3.71411
-39.73283	-129.905	3.78247
-39.7281	-125.254	3.85083
-39.7215	-121.3346	3.91919
-39.7161	-118.335	3.98755
-39.7093	-118.488	4.05591
-39.7047	-118.0362	4.12427
-39.699	-114.273	4.192627
-39.692	-108.825	4.26099
-39.68766	-104.744	4.32935
-39.6818	-98.6226	4.39771
-39.676	-92.8984	4.46606
-39.6698	-89.8047	4.53442
-39.6636	-85.0322	4.60278
-39.659	-81.3791	4.67114
-39.6528	-81.0948	4.739502
-39.6478	-81.4116	4.80786
-39.6427	-78.0395	4.87622
-39.6357	-73.5359	4.94458
-39.6303	-70.5035	5.01294
-39.6252	-64.6363	5.0813
-39.6184	-59.6249	5.14966
-39.6138	-54.7019	5.21802
-39.6085	-48.3157	5.286377
-39.6024	-45.4484	5.35474
-39.5966	-46.7138	5.4231
-39.5919	-46.1077	5.49146
-39.5845	-40.7407	5.55981
-39.5797	-37.6982	5.62817
-39.5735	-35.6304	5.69653
-39.5672	-26.9866	5.76489
-39.5618	-25.1543	5.833252
-39.55452	-19.2524	5.90161
-39.5506	-12.14462	5.96997
-39.5453	-8.39299	6.03833
-39.5392	-10.7176	6.10669
-39.5331	-8.88631	6.17505
-39.5273	-0.775096	6.24341
-39.5226	-2.59265	6.31177
-39.5166	-1.70634	6.380127
-39.5101	5.58089	6.44849
-39.5052	8.2137	6.51685
-39.4987	15.6926	6.58521
-39.4936	22.9073	6.65356
-39.4879	26.1902	6.72192
-39.4823	24.3061	6.79028
-39.476	30.327	6.85864
-39.4706	36.2465	6.927002
-39.4654	33.4646	6.99536
-39.4592	36.67271	7.06372
-39.4537	41.8805	7.13208
-39.44836	44.0945	7.20044
-39.4425	50.0668	7.2688
-39.4372	57.27718	7.33716
-39.4314	60.9745	7.40552
-39.4249	59.9885	7.473877
-39.42	68.0274	7.54224
-39.4145	71.4798	7.6106
-39.4086	70.9687	7.67896
-39.4025	72.8251	7.74731
-39.3969	76.08316	7.81567
-39.3912	78.9402	7.88403
-39.386	84.0315	7.95239
-39.3804	92.0005	8.020752
-39.3742	94.2709	8.08911
-39.3681	97.5973	8.15747
-39.3636	104.511	8.22583
-39.3583	108.487	8.29419
-39.3505	107.144	8.36255
-39.3466	109.0286	8.43091
-39.3405	113.394	8.49927
-39.334	116.009	8.567627
-39.3291	117.708	8.63599
-39.3231	126.367	8.70435
-39.3167	127.21	8.77271
-39.3106	132.982	8.84106
-39.3055	140.694	8.90942
-39.2996	141.731	8.97778
-39.2947	143.215	9.04614
-39.2899	145.013	9.114502
-39.2829	145.812	9.18286
-39.2774	150.979	9.25122
-39.2717	154.4567	9.31958
-39.26664	159.573	9.38794
-39.2605	161.103	9.4563
-39.2553	165.673	9.52466
-39.2484	173.515	9.59302
-39.24292	177.18	9.661377
-39.2372	178.257	9.72974
-39.2317	179.722	9.7981
-39.22562	182.419	9.86646
-39.2216	186.223	9.93481
-39.2144	188.482	10.0032
-39.2088	189.7149	10.0715
-39.2039	193.233	10.1399
-39.199	200.498	10.2083
-39.192	207.374	10.2766
-39.1853	211.59	10.345
-39.1801	213.719	10.41333
-39.1775	216.078	10.4817
-39.1695	218.7511	10.55
-39.1626	220.586	10.6184
-39.1577	222.27	10.6868
-39.1506	224.304	10.7551
-39.1466	226.446	10.8235
-39.1407	235.812	10.8918
-39.1357	239.973	10.9602
-39.129	243.574	11.0286
-39.1238	248.795	11.0969
-39.1185	249.13	11.1653
-39.1109	253.466	11.2336
-39.1063	254.83	11.302
-39.1009	255.458	11.3704
-39.0952	253.946	11.4387
-39.0891	259.771	11.50708
-39.0837	268.017	11.5754
-39.0784	268.962	11.6438
-39.0723	275.4108	11.7122
-39.0673	282.724	11.7805
-39.0602	282.969	11.8489
-39.05481	288.009	11.9172
-39.04932	290.866	11.9856
-39.0432	287.935	12.054
-39.0377	288.889	12.1223
-39.033	293.719	12.1907
-39.026	297.806	12.259
-39.0215	300.419	12.3274
-39.0155	307.481	12.3958
-39.0094	311.845	12.4641
-39.0038	314.419	12.5325
-38.9979	319.02	12.60083
-38.9925	322.769	12.6692
-38.9872	322.21	12.7375
-38.9814	322	12.8059
-38.9751	326.3949	12.8743
-38.9697	327.4707	12.9426
-38.9636	328.265	13.011
-38.958	337.281	13.0793
-38.95245	341.99	13.1477
-38.94611	345.1	13.2161
-38.9411	349.874	13.2844
-38.9363	354.74	13.3528
-38.9302	352.401	13.4211
-38.925	352.691	13.4895
-38.9192	357.744	13.5579
-38.913	359.107	13.6262
-38.907	356.994	13.69458
-38.9014	363.535	13.7629
-38.8962	369.283	13.8313
-38.88995	374.498	13.8997
-38.884	381.001	13.968
-38.8788	383.1062	14.0364
-38.8747	380.402	14.1047
-38.8671	384.079	14.1731
-38.8608	387.981	14.2415
-38.855	386.848	14.3098
-38.8503	388.4025	14.3782
-38.8447	393.366	14.4465
-38.8394	396.1434	14.5149
-38.8335	401.397	14.5833
-38.828	406.705	14.6516
-38.8211	410.488	14.72
-38.8155	408.826	14.78833
-38.8105	412.842	14.8567
-38.8046	416.355	14.925
-38.7985	412.631	14.9934
-38.7933	413.738	15.0618
-38.7867	418.344	15.1301
-38.7818	420.612	15.1985
-38.7775	424.121	15.2668
-38.7704	430.093	15.3352
-38.7652	432.759	15.4036
-38.7582	433.629	15.4719
-38.7537	438.313	15.5403
-38.7464	440.178	15.6086
-38.7428	437.184	15.677
-38.7366	438.109	15.7454
-38.7305	440.469	15.8137
-38.72543	442.834	15.88208
-38.7189	446.205	15.9504
-38.7121	450.478	16.0188
-38.7071	452.572	16.0872
-38.702	453.974	16.1555
-38.6968	460.556	16.2239
-38.6904	460.597	16.2922
-38.68576	458.6608	16.3606
-38.6796	458.586	16.429
-38.6737	459.034	16.4973
-38.6677	460.5065	16.5657
-38.6631	463.097	16.634
-38.6568	465.286	16.7024
-38.6505	468.158	16.7708
-38.6449	469.516	16.8391
-38.6398	474.668	16.9075
-38.6333	474.336	16.97583
-38.62822	474.245	17.0442
-38.6229	473.533	17.1125
-38.6173	471.408	17.1809
-38.6127	473.407	17.2493
-38.6047	472.914	17.3176
-38.59927	472.327	17.386
-38.59444	473.926	17.4543
-38.589	478.5239	17.5227
-38.5835	481.456	17.5911
-38.5763	481.4437	17.6594
-38.5713	482.852	17.7278
-38.5653	480.323	17.7961
-38.5602	478.073	17.8645
-38.5541	478.722	17.9329
-38.5485	476.304	18.0012
-38.5422	474.523	18.06958
-38.5381	474.617	18.1379
-38.5313	480.567	18.2063
-38.5257	481.047	18.2747
-38.5187	481.682	18.343
-38.5141	483.333	18.4114
-38.5089	480.109	18.4797
-38.5026	480.682	18.5481
-38.4971	478.498	18.6165
-38.4916	477.55	18.6848
-38.4855	472.958	18.7532
-38.4809	470.453	18.8215
-38.47435	476.353	18.8899
-38.4695	475.904	18.9583
-38.4637	477.612	19.0266
-38.4575	481.544	19.095
-38.4514	477.882	19.16333
-38.4456	478.3161	19.2317
-38.4395	476.9234	19.3
-38.4341	473.762	19.3684
-38.4297	468.088	19.4368
-38.42345	466.171	19.5051
-38.4169	471.621	19.5735
-38.41066	469.906	19.6418
-38.406	470.291	19.7102
-38.3999	474.824	19.7786
-38.39444	474.192	19.8469
-38.3887	473.069	19.9153
-38.383	473.678	19.9836
-38.3808	467.02	20.0129

Data Header:			0.254_solid_dimension_typeiv_090_r0			Time:	29.5952	s	4/14/2019 1:43:15 AM
Data Acquisition:	Timed
Station Name:	ft40.cfg
Test File Name:	monotonic_0.2540_typeiv_solid_090_dimension.tst
Displacement	Force	Running Time
mm	N	s
-38.3793	470.174	20.0227
-38.3761	467.341	20.0618
-38.3744	474.88	20.10083
-38.3696	469.7103	20.1399
-38.3668	469.095	20.179
-38.3636	471.086	20.218
-38.36039	466.269	20.25708
-38.3569	468.439	20.2961
-38.3539	470.366	20.3352
-38.3507	464.84	20.3743
-38.3468	471.851	20.41333
-38.3441	465.7543	20.4524
-38.3408	465.65	20.4915
-38.3381	468.606	20.5305
-38.33387	462.301	20.56958
-38.3309	467.837	20.6086
-38.3275	466.592	20.6477
-38.3255	462.058	20.6868
-38.3211	466.706	20.72583
-38.3184	466.226	20.7649
-38.3143	462.14	20.804
-38.3117	467.596	20.843
-38.3096	462.457	20.88208
-38.3051	465.276	20.9211
-38.3012	464.776	20.9602
-38.2987	462.53	20.9993
-38.2957	466.96	21.03833
-38.2919	462.0719	21.0774
-38.2885	465.871	21.1165
-38.286	465.164	21.1555
-38.2825	460.852	21.19458
-38.2784	466.763	21.2336
-38.27562	467.395	21.2727
-38.2727	459.859	21.3118
-38.2685	468.886	21.35083
-38.2673	464.75	21.3899
-38.2622	463.136	21.429
-38.2595	467.958	21.468
-38.257	459.791	21.50708
-38.25251	465.307	21.5461
-38.2493	462.017	21.5852
-38.24585	461.041	21.6243
-38.2434	464.399	21.66333
-38.2399	461.436	21.7024
-38.2364	461.885	21.7415
-38.2334	463.665	21.7805
-38.231	457.032	21.81958
-38.2268	463.885	21.8586
-38.2231	462.305	21.8977
-38.2218	456.057	21.9368
-38.21727	465.847	21.97583
-38.2138	459.425	22.0149
-38.2109	458.234	22.054
-38.2069	462.16	22.093
-38.2033	459.083	22.13208
-38.2009	460.446	22.1711
-38.198	461.948	22.2102
-38.1945	459.272	22.2493
-38.1907	463.593	22.28833
-38.1873	459.532	22.3274
-38.1838	461.375	22.3665
-38.1811	466.121	22.4055
-38.1774	457.625	22.44458
-38.1748	464.327	22.4836
-38.1719	462.4975	22.5227
-38.16893	459.051	22.5618
-38.1654	466.1	22.60083
-38.1632	459.521	22.6399
-38.1584	459.0885	22.679
-38.1554	464.643	22.718
-38.15274	458.221	22.75708
-38.1489	460.343	22.7961
-38.1453	460.705	22.8352
-38.1421	457.189	22.8743
-38.13953	463.332	22.91333
-38.1354	456.896	22.9524
-38.1321	459.211	22.9915
-38.1291	462.065	23.0305
-38.12653	453.558	23.06958
-38.1229	460.062	23.1086
-38.1198	462.134	23.1477
-38.11515	453.607	23.1868
-38.1134	461.2	23.22583
-38.11	457.343	23.2649
-38.1059	454.592	23.304
-38.1024	462.079	23.343
-38.0999	455.424	23.38208
-38.0958	461.149	23.4211
-38.0932	459.725	23.4602
-38.091	458.271	23.4993
-38.0858	461.152	23.53833
-38.0832	457.237	23.5774
-38.0808	458.598	23.6165
-38.0767	462.642	23.6555
-38.0746	456.643	23.69458
-38.0718	462.863	23.7336
-38.0672	462.213	23.7727
-38.0645	455.48	23.8118
-38.0618	463.908	23.85083
-38.0587	457.242	23.8899
-38.055	456.882	23.929
-38.0511	460.644	23.968
-38.0483	455.68	24.00708
-38.044	459.66	24.0461
-38.04092	458.158	24.0852
-38.0378	455.681	24.1243
-38.0351	461.3905	24.16333
-38.0322	453.432	24.2024
-38.0285	455.655	24.2415
-38.0248	462.47	24.2805
-38.0211	451.089	24.31958
-38.0188	458.76	24.3586
-38.0154	459.138	24.3977
-38.0115	451.774	24.4368
-38.009	461.025	24.47583
-38.00602	458.082	24.5149
-38.0028	455.397	24.554
-37.9992	460.487	24.593
-37.9962	455.588	24.63208
-37.99194	457.0188	24.6711
-37.9899	459.742	24.7102
-37.9867	456.85	24.7493
-37.9821	461.438	24.78833
-37.9793	456.318	24.8274
-37.9769	457.3699	24.8665
-37.9731	462.45	24.9055
-37.9688	452.951	24.94458
-37.9669	460.902	24.9836
-37.9634	458.789	25.0227
-37.9592	455.158	25.0618
-37.957	460.145	25.10083
-37.9527	455.313	25.1399
-37.9514	455.896	25.179
-37.9464	459.792	25.218
-37.9438	452.009	25.25708
-37.9406	457.0903	25.2961
-37.9364	455.234	25.3352
-37.9352	452.803	25.3743
-37.9314	459.679	25.41333
-37.928	453.149	25.4524
-37.9251	454.156	25.4915
-37.922	458.783	25.5305
-37.917	452.769	25.56958
-37.9153	456.502	25.6086
-37.9119	458.394	25.6477
-37.9079	449.758	25.6868
-37.9046	459.088	25.72583
-37.9015	454.523	25.7649
-37.8987	453.068	25.804
-37.8948	458.193	25.843
-37.8916	453.071	25.88208
-37.8893	457.718	25.9211
-37.8851	455.68	25.9602
-37.8806	455.293	25.9993
-37.8782	460.621	26.03833
-37.876	454.539	26.0774
-37.8721	456.103	26.1165
-37.8687	461.454	26.1555
-37.8671	452.875	26.19458
-37.8614	458.594	26.2336
-37.8592	459.87	26.2727
-37.8568	453.237	26.3118
-37.8517	460.46	26.35083
-37.8491	454.0108	26.3899
-37.8467	454.936	26.429
-37.8427	458.907	26.468
-37.8393	451.644	26.50708
-37.8364	455.228	26.5461
-37.8329	455.091	26.5852
-37.8301	451.198	26.6243
-37.82687	458.049	26.66333
-37.82267	451.616	26.7024
-37.8201	450.681	26.7415
-37.8167	459.463	26.7805
-37.81377	448.199	26.81958
-37.8096	457.078	26.8586
-37.807	455.65	26.8977
-37.8039	450.699	26.9368
-37.8005	455.85	26.97583
-37.7968	454.364	27.0149
-37.7945	452.339	27.054
-37.79	456.983	27.093
-37.7878	452.2627	27.13208
-37.7845	456.6	27.1711
-37.7813	455.186	27.2102
-37.779	452.414	27.2493
-37.774	460.274	27.28833
-37.7711	452.749	27.3274
-37.7668	456.131	27.3665
-37.7643	458.778	27.4055
-37.7617	450.4296	27.44458
-37.7571	456.699	27.4836
-37.754	456.62	27.5227
-37.751	451.52	27.5618
-37.7494	457.676	27.60083
-37.74477	453.409	27.6399
-37.7414	451.341	27.679
-37.7388	457.233	27.718
-37.736	448.83	27.75708
-37.7323	454.596	27.7961
-37.73035	452.103	27.8352
-37.7256	449.064	27.8743
-37.7225	456.307	27.91333
-37.7194	447.9549	27.9524
-37.7154	451.163	27.9915
-37.7119	457.579	28.0305
-37.7096	447.411	28.06958
-37.7054	453.662	28.1086
-37.7033	455.058	28.1477
-37.6986	447.352	28.1868
-37.6959	455.843	28.22583
-37.6942	451.232	28.2649
-37.6903	451.1033	28.304
-37.687	455.313	28.343
-37.6839	450.283	28.38208
-37.6795	454.738	28.4211
-37.6759	451.181	28.4602
-37.6728	450.135	28.4993
-37.6706	455.4903	28.53833
-37.6672	451.725	28.5774
-37.6645	451.59	28.6165
-37.6608	456.457	28.6555
-37.6563	447.856	28.69458
-37.6541	454.866	28.7336
-37.6516	451.8519	28.7727
-37.647	445.484	28.8118
-37.6442	452.329	28.85083
-37.6401	447.02	28.8899
-37.6378	446.793	28.929
-37.6358	447.644	28.968
-37.631	438.351	29.00708
-37.6241	-25.2796	29.0461
-37.6231	-39.9722	29.0852
-37.6205	-47.7775	29.1243
-37.6173	-36.5121	29.16333
-37.6133	-47.1372	29.2024
-37.61058	-45.2934	29.2415
-37.6065	-37.7219	29.2805
-37.6051	-47.764	29.31958
-37.6015	-40.3159	29.3586
-37.5983	-41.1492	29.3977
-37.5956	-44.9052	29.4368
-37.5909	-40.9691	29.47583
-37.5894	-41.5427	29.5149
-37.5857	-43.6494	29.554
-37.5827	-40.3533	29.5833