File: data/processed_data_files/tensile/0.254_hd_uprint_typeiv_4545_r(3).dat
MTS793|BTW|ENU|1|2|.|/|:|1|0|0|A

Data Header:			0.254_hd_uprint_typeiv_4545_r0			Time:	20.0173	s	4/13/2019 7:17:08 PM
Data Acquisition:	Timed
Station Name:	ft40.cfg
Test File Name:	monotonic_0.2540_typeiv_hd_4545_uprint.tst
Displacement	Force	Running Time
mm	N	s
-40.0347	46.4483	0.0224609
-40.0343	44.7815	0.0908203
-40.0287	48.8967	0.15918
-40.0218	52.336	0.227539
-40.0161	51.4019	0.295898
-40.0101	53.7593	0.364258
-40.005	58.2077	0.432617
-39.9998	60.5014	0.500977
-39.9945	62.26	0.569336
-39.9879	69.5488	0.637695
-39.983	76.7595	0.706055
-39.9762	79.4001	0.774414
-39.971	83.23484	0.842773
-39.96637	84.9472	0.911133
-39.96022	87.2167	0.979492
-39.9542	89.4668	1.04785
-39.9492	91.7519	1.11621
-39.9419	93.916	1.18457
-39.9367	96.5027	1.25293
-39.9315	103.505	1.32129
-39.9244	106.919	1.38965
-39.9194	112.265	1.45801
-39.9138	118.331	1.52637
-39.9084	117.85	1.59473
-39.9029	122.713	1.66309
-39.8979	124.084	1.73145
-39.891	124.595	1.7998
-39.8855	123.578	1.86816
-39.881	129.337	1.93652
-39.8732	134.854	2.00488
-39.8687	137.807	2.07324
-39.8625	144.073	2.1416
-39.857	148.196	2.20996
-39.8515	149.949	2.27832
-39.8473	155.139	2.34668
-39.84082	156.693	2.41504
-39.8342	158.15	2.4834
-39.829	156.971	2.55176
-39.8236	160.679	2.62012
-39.8176	166.79	2.68848
-39.8124	169.392	2.75684
-39.8068	175.331	2.8252
-39.7995	181.154	2.89355
-39.7941	183.547	2.96191
-39.7894	186.852	3.03027
-39.7837	191.495	3.09863
-39.7762	189.7	3.16699
-39.7718	189.1002	3.23535
-39.7653	194.133	3.30371
-39.76041	198.191	3.37207
-39.7543	198.497	3.44043
-39.749	205.382	3.50879
-39.7424	211.5058	3.57715
-39.7372	214.288	3.64551
-39.7319	218.757	3.71387
-39.7264	224.877	3.78223
-39.7212	222.976	3.85059
-39.7167	221.7155	3.91895
-39.7091	226.75	3.9873
-39.7032	229.694	4.05566
-39.6975	230.848	4.12402
-39.6918	237.21	4.19238
-39.6867	242.024	4.26074
-39.68	246.471	4.3291
-39.6759	251.093	4.39746
-39.6698	255.732	4.46582
-39.6628	255.858	4.53418
-39.6587	252.774	4.60254
-39.6519	258.974	4.6709
-39.6454	259.659	4.73926
-39.6406	261.863	4.80762
-39.6361	266.938	4.87598
-39.6295	271.085	4.94434
-39.6239	276.067	5.0127
-39.61784	280.021	5.08105
-39.6128	284.585	5.14941
-39.6066	285.467	5.21777
-39.5998	286.392	5.28613
-39.5961	289.253	5.35449
-39.5891	292.018	5.42285
-39.5839	291.432	5.49121
-39.5784	294.778	5.55957
-39.5731	298.772	5.62793
-39.567	303.687	5.69629
-39.5615	309.457	5.76465
-39.555	314.335	5.83301
-39.54895	314.33	5.90137
-39.5438	316.67	5.96973
-39.5387	322.0639	6.03809
-39.5326	323.073	6.10645
-39.52668	323.032	6.1748
-39.5217	325.767	6.24316
-39.5152	327.908	6.31152
-39.50985	333.035	6.37988
-39.5051	338.989	6.44824
-39.4985	339.788	6.5166
-39.49213	343.137	6.58496
-39.4866	348.579	6.65332
-39.4811	352.115	6.72168
-39.4753	351.631	6.79004
-39.4705	353.82	6.8584
-39.4641	354.448	6.92676
-39.4592	353.98	6.99512
-39.4532	361.271	7.06348
-39.4481	364.322	7.13184
-39.4404	367.922	7.2002
-39.4369	369.1311	7.26855
-39.4314	376.384	7.33691
-39.4242	381.259	7.40527
-39.4193	380.912	7.47363
-39.4135	381.687	7.54199
-39.4074	382.934	7.61035
-39.402	383.563	7.67871
-39.3969	386.132	7.74707
-39.3904	394.141	7.81543
-39.3825	393.438	7.88379
-39.3787	394.457	7.95215
-39.3733	404.261	8.02051
-39.3675	407.152	8.08887
-39.3615	407.654	8.15723
-39.355	408.982	8.22559
-39.3507	410.339	8.29395
-39.3438	409.156	8.3623
-39.33913	412.788	8.43066
-39.3331	416.192	8.49902
-39.3272	416.9509	8.56738
-39.3235	420.352	8.63574
-39.3167	428.763	8.7041
-39.3105	431.939	8.77246
-39.3052	431.593	8.84082
-39.29863	434.387	8.90918
-39.29361	437.3125	8.97754
-39.2889	435.706	9.0459
-39.2818	437.2384	9.11426
-39.2763	441.257	9.18262
-39.2709	441.023	9.25098
-39.2642	442.63	9.31934
-39.26	451.505	9.3877
-39.254	456.824	9.45605
-39.2487	457.584	9.52441
-39.2422	457.83	9.59277
-39.2356	462.308	9.66113
-39.2304	461.997	9.72949
-39.2253	462.383	9.79785
-39.22	463.485	9.86621
-39.2143	462.981	9.93457
-39.208	465.94	10.00293
-39.2032	472.602	10.0713
-39.1967	474.329	10.1396
-39.1918	479.827	10.208
-39.18449	481.738	10.2764
-39.1797	483.745	10.3447
-39.1736	484.53	10.4131
-39.1681	484.991	10.4814
-39.1623	482.545	10.5498
-39.1554	481.476	10.6182
-39.1515	486.518	10.6865
-39.1452	490.7908	10.7549
-39.1388	492.96	10.8232
-39.1341	497.019	10.8916
-39.1283	499.716	10.96
-39.1223	501.244	11.02832
-39.1173	503.3	11.09668
-39.1115	502.9278	11.165
-39.1053	501.351	11.2334
-39.0995	498.835	11.3018
-39.0942	503.699	11.3701
-39.0875	505.959	11.4385
-39.0826	506.196	11.5068
-39.07663	511.699	11.5752
-39.0703	514.08	11.6436
-39.0652	514.753	11.7119
-39.0598	518.453	11.7803
-39.055	518.004	11.8486
-39.0478	514.286	11.917
-39.0426	511.296	11.9854
-39.0371	514.656	12.0537
-39.0313	515.187	12.12207
-39.0263	515.713	12.19043
-39.0201	519.287	12.2588
-39.014	523.3385	12.3271
-39.0086	521.936	12.3955
-39.004	524.394	12.4639
-38.9958	524.753	12.5322
-38.9915	519.098	12.6006
-38.9861	518.474	12.6689
-38.9801	522.382	12.7373
-38.9743	519.637	12.8057
-38.969	517.287	12.874
-38.9625	521.294	12.9424
-38.9581	522.705	13.0107
-38.9512	523.54	13.0791
-38.9464	526.173	13.1475
-38.9401	528.1687	13.21582
-38.9347	522.799	13.28418
-38.9279	520.345	13.3525
-38.9228	523.252	13.4209
-38.9171	521.044	13.4893
-38.9105	517.876	13.5576
-38.9066	519.951	13.626
-38.9004	519.176	13.6943
-38.8949	521.278	13.7627
-38.8895	524.477	13.8311
-38.8836	524.567	13.8994
-38.8784	520.06	13.9678
-38.8716	518.539	14.0361
-38.8681	522.269	14.1045
-38.8604	518.209	14.1729
-38.8544	514.763	14.2412
-38.8496	515.87	14.30957
-38.8426	516.926	14.37793
-38.83778	516.828	14.4463
-38.8322	519.987	14.5146
-38.82634	520.266	14.583
-38.8202	517.412	14.6514
-38.815	517.6283	14.7197
-38.8086	518.651	14.7881
-38.80331	515.185	14.8564
-38.7982	513.2334	14.9248
-38.7931	514.297	14.9932
-38.78669	511.495	15.0615
-38.781	514.452	15.1299
-38.7748	515.114	15.1982
-38.7691	515.679	15.2666
-38.7628	516.398	15.335
-38.7585	517.558	15.40332
-38.752	517.374	15.47168
-38.7466	514.792	15.54
-38.7399	512.2182	15.6084
-38.7345	512.732	15.6768
-38.72876	509.148	15.7451
-38.7231	511.7135	15.8135
-38.7186	511.563	15.8818
-38.7125	511.115	15.9502
-38.707	511.706	16.0186
-38.7015	515.155	16.0869
-38.6946	516.621	16.1553
-38.68919	514.496	16.2236
-38.6839	512.409	16.292
-38.6778	509.533	16.3604
-38.6721	508.444	16.4287
-38.6674	508.632	16.49707
-38.66172	508.164	16.56543
-38.6562	507.201	16.6338
-38.6492	508.698	16.7021
-38.64349	514.726	16.7705
-38.6389	514.754	16.8389
-38.6322	512.792	16.9072
-38.6263	513.047	16.9756
-38.62006	508.9736	17.0439
-38.616	507.501	17.1123
-38.6107	507.387	17.1807
-38.6051	506.621	17.249
-38.5996	503.218	17.3174
-38.5934	505.529	17.3857
-38.5874	511.383	17.4541
-38.5822	511.166	17.5225
-38.5748	509.868	17.59082
-38.569	511.633	17.65918
-38.5637	509.067	17.7275
-38.5587	506.64	17.7959
-38.5533	505.899	17.8643
-38.5476	505.622	17.9326
-38.5399	501.021	18.001
-38.5355	502.75	18.0693
-38.5305	508.896	18.1377
-38.52335	508.735	18.2061
-38.518	509.415	18.2744
-38.5123	512.107	18.3428
-38.5079	509.243	18.4111
-38.502	506.88	18.4795
-38.4966	505.903	18.5479
-38.4892	502.979	18.6162
-38.4849	499.132	18.68457
-38.4784	501.516	18.75293
-38.4725	507.702	18.8213
-38.467	506.939	18.8896
-38.4601	508.329	18.958
-38.4553	511.019	19.0264
-38.4506	508.242	19.0947
-38.4453	508.128	19.1631
-38.43792	505.444	19.2314
-38.4326	503.666	19.2998
-38.4271	499.237	19.3682
-38.4208	501.274	19.4365
-38.4157	503.787	19.5049
-38.411	504.571	19.5732
-38.4048	507.821	19.6416
-38.3988	509.36	19.71
-38.3934	508.719	19.77832
-38.3876	507.083	19.84668
-38.3823	505.439	19.915
-38.3762	502.4104	19.9834
-38.37476	504.522	20.0127

Data Header:			0.254_hd_uprint_typeiv_4545_r0			Time:	29.77002	s	4/13/2019 7:17:18 PM
Data Acquisition:	Timed
Station Name:	ft40.cfg
Test File Name:	monotonic_0.2540_typeiv_hd_4545_uprint.tst
Displacement	Force	Running Time
mm	N	s
-38.3721	506.28	20.0225
-38.3703	500.481	20.0615
-38.3663	504.646	20.1006
-38.3634	503.623	20.1396
-38.3596	501.493	20.1787
-38.3573	502.898	20.2178
-38.3536	502.747	20.2568
-38.3504	502.432	20.2959
-38.3472	503.776	20.335
-38.3445	500.109	20.374
-38.3407	506.915	20.4131
-38.3367	501.409	20.4521
-38.3335	499.993	20.4912
-38.33083	509.136	20.5303
-38.3269	497.93	20.5693
-38.3246	503.55	20.6084
-38.32151	506.812	20.6475
-38.3173	501.149	20.6865
-38.3142	506.09	20.7256
-38.3115	505.303	20.7646
-38.3086	501.05	20.8037
-38.3039	508.448	20.8428
-38.302	502.901	20.8818
-38.2988	502.829	20.9209
-38.2955	507.244	20.96
-38.2917	500.081	20.999
-38.2887	506.03	21.0381
-38.2853	503.676	21.0771
-38.2825	498.85	21.1162
-38.2792	505.888	21.1553
-38.2747	500.125	21.1943
-38.2718	497.882	21.2334
-38.269	503.338	21.2725
-38.26601	498.011	21.3115
-38.263	501.302	21.3506
-38.25893	502.146	21.3896
-38.2563	498.325	21.4287
-38.2519	501.708	21.4678
-38.2496	498.367	21.5068
-38.2456	501.509	21.5459
-38.2419	502.602	21.585
-38.24	498.257	21.624
-38.2363	504.161	21.6631
-38.2329	500.136	21.7021
-38.2305	498.942	21.7412
-38.2263	503.579	21.7803
-38.2231	496.745	21.8193
-38.2216	500.635	21.8584
-38.2175	505.984	21.8975
-38.213	498.067	21.9365
-38.2094	504.609	21.9756
-38.209	504.478	22.0146
-38.2043	499.241	22.0537
-38.2011	506.673	22.0928
-38.1971	501.697	22.1318
-38.1947	501.6485	22.1709
-38.1907	503.9035	22.21
-38.1875	498.6	22.249
-38.1841	503.398	22.2881
-38.1797	502.151	22.3271
-38.17712	496.927	22.3662
-38.1747	504.945	22.4053
-38.1708	498.2084	22.4443
-38.168	497.915	22.4834
-38.1638	503.556	22.5225
-38.1611	496.654	22.5615
-38.1579	498.319	22.6006
-38.1554	500.02	22.6396
-38.1511	498.459	22.6787
-38.1475	500.364	22.7178
-38.1449	499.262	22.7568
-38.1421	499.594	22.7959
-38.1389	499.564	22.835
-38.1362	496.922	22.874
-38.1312	503.274	22.9131
-38.12991	499.085	22.9521
-38.1248	497.034	22.9912
-38.12347	505.716	23.0303
-38.11982	496.712	23.0693
-38.1154	498.74	23.1084
-38.1125	501.728	23.1475
-38.1096	496.518	23.1865
-38.10643	501.828	23.2256
-38.1018	502.639	23.2646
-38.09914	498.332	23.3037
-38.097	502.93	23.3428
-38.0927	498.164	23.3818
-38.0891	500.375	23.4209
-38.0868	504.46	23.46
-38.0836	495.16	23.499
-38.07967	501.985	23.5381
-38.0774	499.208	23.5771
-38.0739	494.661	23.6162
-38.0705	503.22	23.6553
-38.067	496.801	23.6943
-38.0626	496.189	23.7334
-38.061	500.819	23.7725
-38.0572	495.9903	23.8115
-38.0536	497.483	23.8506
-38.0507	499.058	23.8896
-38.0473	496.62	23.9287
-38.0442	497.658	23.9678
-38.0412	495.003	24.0068
-38.0381	497.6962	24.0459
-38.0351	498.097	24.085
-38.03149	495.748	24.124
-38.02832	500.903	24.1631
-38.025	496.224	24.2021
-38.0213	496.312	24.2412
-38.0192	501.253	24.2803
-38.0148	496.661	24.3193
-38.0116	496.191	24.3584
-38.00806	502.6564	24.3975
-38.0062	495.428	24.4365
-38.003	500.874	24.4756
-38	498.535	24.5146
-37.9957	496.673	24.5537
-37.9924	501.066	24.5928
-37.9893	497.808	24.6318
-37.9858	498.653	24.6709
-37.9824	500.991	24.71
-37.979	495.007	24.749
-37.9755	498.452	24.7881
-37.9726	498.944	24.8271
-37.9706	493.52	24.8662
-37.9653	501.4187	24.9053
-37.96328	495.096	24.9443
-37.9598	493.772	24.9834
-37.957	499.709	25.0225
-37.952	494.051	25.0615
-37.9499	496.381	25.1006
-37.9462	496.468	25.1396
-37.9434	492.876	25.1787
-37.9391	495.633	25.2178
-37.937	493.021	25.2568
-37.9332	495.015	25.2959
-37.9308	495.927	25.335
-37.9278	493.313	25.374
-37.9247	499.35	25.4131
-37.9203	495.786	25.4521
-37.9174	493.251	25.4912
-37.9134	500.034	25.5303
-37.9105	490.262	25.5693
-37.9074	494.576	25.6084
-37.90453	498.3082	25.6475
-37.9012	492.514	25.6865
-37.8981	498.2543	25.7256
-37.8944	497.553	25.7646
-37.89043	493.953	25.8037
-37.8885	498.573	25.8428
-37.88483	494.625	25.8818
-37.8813	495.994	25.9209
-37.8795	499.026	25.96
-37.8749	491.144	25.999
-37.8714	498.224	26.0381
-37.8673	495.569	26.0771
-37.8652	490.253	26.1162
-37.8617	497.022	26.1553
-37.8593	492.915	26.1943
-37.85519	490.399	26.2334
-37.8525	495.218	26.2725
-37.848	491.071	26.3115
-37.8455	491.8027	26.3506
-37.842	495.8	26.3896
-37.8395	490.008	26.4287
-37.8367	493.588	26.4678
-37.8332	490.762	26.5068
-37.8293	491.992	26.5459
-37.8258	491.742	26.585
-37.8225	488.864	26.624
-37.8198	494.474	26.6631
-37.8171	489.585	26.7021
-37.81324	489.603	26.7412
-37.81	495.599	26.7803
-37.8065	489.059	26.8193
-37.80402	491.279	26.8584
-37.7999	496.219	26.8975
-37.7967	487.959	26.9365
-37.7932	492.245	26.9756
-37.7912	492.926	27.0146
-37.78751	488.026	27.0537
-37.784	494.369	27.0928
-37.7803	487.587	27.1318
-37.77652	489.03	27.1709
-37.7742	491.829	27.21
-37.7716	483.895	27.249
-37.7668	489.837	27.2881
-37.76437	484.64	27.3271
-37.7612	479.49	27.3662
-37.7569	488.445	27.4053
-37.7542	478.606	27.4443
-37.75071	474.8298	27.4834
-37.7473	475.568	27.5225
-37.742	-39.0118	27.5615
-37.7406	-47.6715	27.6006
-37.73737	-41.3098	27.6396
-37.7349	-43.9906	27.6787
-37.7316	-43.1198	27.7178
-37.7274	-43.1857	27.7568
-37.7257	-41.9408	27.7959
-37.7215	-42.002	27.835
-37.7176	-45.5321	27.874
-37.7152	-39.0528	27.9131
-37.7122	-42.8657	27.9521
-37.7092	-44.2383	27.9912
-37.706	-37.4665	28.0303
-37.70237	-45.4681	28.0693
-37.6988	-42.4009	28.1084
-37.6959	-39.0772	28.1475
-37.6922	-43.4143	28.1865
-37.689	-38.6807	28.2256
-37.6861	-41.93821	28.2646
-37.6833	-41.7107	28.3037
-37.6804	-37.8774	28.3428
-37.6764	-44.2288	28.3818
-37.6733	-42.5698	28.4209
-37.6695	-38.3478	28.46
-37.667	-47.6889	28.499
-37.6622	-39.7596	28.5381
-37.6598	-41.7295	28.5771
-37.6552	-46.5555	28.6162
-37.653	-38.5427	28.6553
-37.6508	-45.1273	28.6943
-37.6471	-46.3319	28.7334
-37.6442	-40.277	28.7725
-37.6392	-44.635	28.8115
-37.63728	-43.8628	28.8506
-37.6331	-41.1777	28.8896
-37.6313	-44.6274	28.9287
-37.6272	-42.1364	28.9678
-37.624	-45.1704	29.0068
-37.6209	-42.8547	29.0459
-37.6175	-41.0273	29.085
-37.6138	-46.1346	29.124
-37.6109	-39.6908	29.1631
-37.6073	-42.72052	29.2021
-37.6043	-44.0615	29.2412
-37.601	-38.1239	29.2803
-37.5977	-43.2679	29.3193
-37.5945	-42.0589	29.3584
-37.5919	-37.7446	29.3975
-37.5877	-44.811	29.4365
-37.58477	-40.19392	29.4756
-37.5813	-40.9976	29.5146
-37.5786	-43.0025	29.5537
-37.5752	-36.4669	29.5928
-37.57209	-43.8062	29.6318
-37.5683	-41.3179	29.6709
-37.5656	-40.0664	29.71
-37.562	-46.2242	29.749
-37.5612	-43.5864	29.7588