File: data/processed_data_files/tensile/0.254_solid_uprint_typei_4545_r(3).dat
MTS793|BTW|ENU|1|2|.|/|:|1|0|0|A

Data Header:			0.254_solid_uprint_typei_4545_r0			Time:	20.0173	s	4/14/2019 4:23:10 AM
Data Acquisition:	Timed
Station Name:	ft40.cfg
Test File Name:	monotonic_0.2540_typei_solid_4545_uprint.tst
Displacement	Force	Running Time
mm	N	s
9.95707	-134.261	0.0224609
9.9578	-129.733	0.0908203
9.96372	-122.4855	0.15918
9.9691	-122.749	0.227539
9.97498	-120.954	0.295898
9.9808	-117.894	0.364258
9.986455	-121.1539	0.432617
9.99236	-119.773	0.500977
9.99743	-117.357	0.569336
10.0038	-114.657	0.637695
10.0094	-111.877	0.706055
10.0156	-102.4781	0.774414
10.02002	-90.8285	0.842773
10.0265	-90.3684	0.911133
10.0315	-86.0327	0.979492
10.0379	-80.9962	1.04785
10.0432	-86.9574	1.11621
10.0486	-85.9709	1.18457
10.0548	-82.5829	1.25293
10.0606	-83.6993	1.32129
10.066	-79.2244	1.38965
10.0709	-68.4382	1.45801
10.0778	-59.6596	1.52637
10.0839	-55.5501	1.59473
10.0887	-49.7474	1.66309
10.0948	-45.9726	1.73145
10.1008	-46.9128	1.7998
10.1061	-48.3662	1.86816
10.1123	-47.7756	1.93652
10.1159	-49.0271	2.00488
10.1231	-46.5187	2.07324
10.1284	-35.31	2.1416
10.1336	-27.9821	2.20996
10.1401	-23.4643	2.27832
10.1472	-16.1835	2.34668
10.1516	-11.8858	2.41504
10.1561	-11.20276	2.4834
10.1629	-9.6064	2.55176
10.16855	-11.5414	2.62012
10.174	-12.7838	2.68848
10.1795	-11.5298	2.75684
10.1859	-1.64267	2.8252
10.1914	4.380147	2.89355
10.1974	11.4922	2.96191
10.2014	18.4714	3.03027
10.2086	23.5479	3.09863
10.2136	27.2523	3.16699
10.2195	28.3344	3.23535
10.2255	28.368	3.30371
10.2311	24.4081	3.37207
10.2374	25.585	3.44043
10.242	31.5232	3.50879
10.2479	37.0674	3.57715
10.2538	43.4904	3.64551
10.259	52.24334	3.71387
10.2654	57.719	3.78223
10.27	65.2696	3.85059
10.2757	67.61763	3.91895
10.2823	64.5213	3.9873
10.2886	63.6214	4.05566
10.2925	63.8354	4.12402
10.2997	67.0131	4.19238
10.3048	69.89286	4.26074
10.3111	76.9525	4.3291
10.3163	84.9484	4.39746
10.3222	91.81501	4.46582
10.327	101.392	4.53418
10.3328	102.6436	4.60254
10.3381	102.118	4.6709
10.34527	101.022	4.73926
10.3497	102.662	4.80762
10.3559	104.732	4.87598
10.3616	104.067	4.94434
10.3677	114.043	5.0127
10.3734	118.87	5.08105
10.3783	125.866	5.14941
10.3843	134.458	5.21777
10.3901	139.3979	5.28613
10.3954	139.7803	5.35449
10.40247	141.328	5.42285
10.408	143.642	5.49121
10.4124	142.317	5.55957
10.4184	141.754	5.62793
10.4253	148.3494	5.69629
10.4297	152.17	5.76465
10.4356	158.179	5.83301
10.4412	168.945	5.90137
10.4476	175.0215	5.96973
10.4535	174.914	6.03809
10.45794	179.381	6.10645
10.46357	184.495	6.1748
10.4698	180.417	6.24316
10.4758	179.381	6.31152
10.4818	185.162	6.37988
10.4867	187.7764	6.44824
10.4918	191.3546	6.5166
10.4984	201.846	6.58496
10.50383	210	6.65332
10.5102	211.553	6.72168
10.5159	215.934	6.79004
10.52059	223.363	6.8584
10.5266	219.646	6.92676
10.5332	218.315	6.99512
10.5388	221.462	7.06348
10.5437	222.063	7.13184
10.5499	226.448	7.2002
10.5556	236.414	7.26855
10.5611	241.648	7.33691
10.5674	246.575	7.40527
10.5728	249.99	7.47363
10.5782	259.508	7.54199
10.5838	258.051	7.61035
10.5904	257.615	7.67871
10.5957	258.545	7.74707
10.6003	260.058	7.81543
10.6077	261.6329	7.88379
10.6124	269.085	7.95215
10.6176	274.941	8.02051
10.62329	279.253	8.08887
10.62968	286.577	8.15723
10.6354	296.402	8.22559
10.6411	295.987	8.29395
10.6467	293.773	8.3623
10.6519	297.478	8.43066
10.6596	295.4393	8.49902
10.6644	297.8826	8.56738
10.66933	301.587	8.63574
10.675	307.553	8.7041
10.68	312.067	8.77246
10.6863	320.144	8.84082
10.6912	330.438	8.90918
10.6977	334.78	8.97754
10.7025	335.467	9.0459
10.7093	335.549	9.11426
10.7151	333.443	9.18262
10.7211	334.822	9.25098
10.7262	334.704	9.31934
10.732	336.868	9.3877
10.7379	343.932	9.45605
10.7433	352.474	9.52441
10.7496	362.298	9.59277
10.755	367.492	9.66113
10.7609	372.35	9.72949
10.7665	373.018	9.79785
10.7723	370.081	9.86621
10.778	372.3429	9.93457
10.783	369.044	10.00293
10.78954	369.037	10.0713
10.7952	376.576	10.1396
10.8002	384.016	10.208
10.8056	393.505	10.2764
10.8125	400.176	10.3447
10.8174	408.659	10.4131
10.8226	408.8219	10.4814
10.8284	408.238	10.5498
10.8347	408.577	10.6182
10.8399	407.0191	10.6865
10.8456	402.965	10.7549
10.8514	408.89	10.8232
10.8584	416.783	10.8916
10.8626	423.041	10.96
10.8693	433.662	11.02832
10.8739	442.122	11.09668
10.8801	442.683	11.165
10.8858	446.134	11.2334
10.89096	445.596	11.3018
10.8972	442.158	11.3701
10.90231	438.708	11.4385
10.9085	439.733	11.5068
10.9147	450.021	11.5752
10.9201	452.975	11.6436
10.9257	462.357	11.7119
10.9316	472.7	11.7803
10.9377	476.982	11.8486
10.9426	481.621	11.917
10.9488	483.066	11.9854
10.9544	480.656	12.0537
10.9599	474.695	12.12207
10.9649	476.014	12.19043
10.9706	481.683	12.2588
10.97753	483.73	12.3271
10.9824	491.349	12.3955
10.9901	502.583	12.4639
10.9941	507.914	12.5322
11.0004	514.842	12.6006
11.0055	517.71	12.6689
11.0113	515.771	12.7373
11.0173	509.278	12.8057
11.0232	511.718	12.874
11.0288	513.927	12.9424
11.0341	514.435	13.0107
11.0401	519.552	13.0791
11.04545	529.375	13.1475
11.0505	536.562	13.21582
11.0572	545.731	13.28418
11.0622	552.455	13.3525
11.069	549.819	13.4209
11.07238	545.647	13.4893
11.0805	546.9339	13.5576
11.0854	548.483	13.626
11.0911	546.36	13.6943
11.09729	550.935	13.7627
11.1023	559.222	13.8311
11.108	566.695	13.8994
11.1143	575.798	13.9678
11.1195	582.924	14.0361
11.1252	581.911	14.1045
11.13021	581.451	14.1729
11.137	584.17	14.2412
11.1417	582.554	14.30957
11.1478	578.917	14.37793
11.1536	580.681	14.4463
11.1596	585.125	14.5146
11.1662	594.204	14.583
11.1711	601.819	14.6514
11.1777	610.2251	14.7197
11.1815	611.795	14.7881
11.1879	614.159	14.8564
11.1933	617.3233	14.9248
11.1984	616.368	14.9932
11.2054	612.531	15.0615
11.2109	611.86	15.1299
11.2162	617.105	15.1982
11.2225	623.78	15.2666
11.2273	629.341	15.335
11.2345	638.444	15.40332
11.2385	642.561	15.47168
11.2445	645.459	15.54
11.2516	649.811	15.6084
11.2574	647.99	15.6768
11.2625	646.054	15.7451
11.2679	643.261	15.8135
11.27355	643.26	15.8818
11.2793	651.01	15.9502
11.2848	657.317	16.0186
11.291	662.445	16.0869
11.2962	670.214	16.1553
11.3022	677.221	16.2236
11.3085	681.712	16.292
11.3133	679.733	16.3604
11.32	678.816	16.4287
11.3241	677.08	16.49707
11.3319	675.203	16.56543
11.3371	679.804	16.6338
11.3421	684.653	16.7021
11.348	689.117	16.7705
11.3528	695.849	16.8389
11.3594	704.319	16.9072
11.3648	711.427	16.9756
11.3701	710.36	17.0439
11.3757	711.528	17.1123
11.3822	708.897	17.1807
11.3872	705.549	17.249
11.3926	708.685	17.3174
11.3987	711.506	17.3857
11.403	712.426	17.4541
11.4104	720.447	17.5225
11.41604	731.445	17.59082
11.4213	738.258	17.65918
11.4276	739.877	17.7275
11.4333	743.455	17.7959
11.4382	742.775	17.8643
11.446	736.737	17.9326
11.4497	737.9115	18.001
11.45615	738.555	18.0693
11.4613	740.4118	18.1377
11.4666	743.704	18.2061
11.4731	757.55	18.2744
11.4779	763.798	18.3428
11.484	766.02	18.4111
11.49	771.585	18.4795
11.4946	772.089	18.5479
11.501	766.944	18.6162
11.5071	766.7832	18.68457
11.5125	767.789	18.75293
11.5192	765.987	18.8213
11.5239	768.331	18.8896
11.5296	779.656	18.958
11.5355	788.513	19.0264
11.5413	791.303	19.0947
11.54662	798.951	19.1631
11.5522	800.146	19.2314
11.5586	796.712	19.2998
11.5638	797.346	19.3682
11.56959	796.111	19.4365
11.575	792.896	19.5049
11.5805	792.424	19.5732
11.5867	804.438	19.6416
11.5922	809.491	19.71
11.5976	814.752	19.77832
11.6039	823.011	19.84668
11.6091	825.814	19.915
11.6141	825.513	19.9834
11.6176	814.146	20.0127

Data Header:			0.254_solid_uprint_typei_4545_r0			Time:	40.0173	s	4/14/2019 4:23:30 AM
Data Acquisition:	Timed
Station Name:	ft40.cfg
Test File Name:	monotonic_0.2540_typei_solid_4545_uprint.tst
Displacement	Force	Running Time
mm	N	s
11.6193	817.649	20.0225
11.62363	827.636	20.09082
11.6296	835.419	20.15918
11.6352	835.341	20.2275
11.6413	839.435	20.2959
11.6466	837.193	20.3643
11.65275	831.564	20.4326
11.65733	831.86	20.501
11.664	835.187	20.5693
11.6701	834.619	20.6377
11.675	838.594	20.7061
11.6816	850.62	20.7744
11.6872	857.882	20.8428
11.6916	860.236	20.9111
11.6986	863.767	20.9795
11.70312	863.578	21.0479
11.70975	857.905	21.1162
11.7138	858.45	21.18457
11.72111	858.896	21.25293
11.7265	856.138	21.3213
11.73229	859.116	21.3896
11.7379	869.628	21.458
11.7435	875.708	21.5264
11.7493	881.548	21.5947
11.7549	887.332	21.6631
11.7604	887.702	21.7314
11.76587	884.541	21.7998
11.7723	883.521	21.8682
11.7783	881.885	21.9365
11.7837	878.241	22.0049
11.7893	878.594	22.0732
11.7954	888.056	22.1416
11.801	895.663	22.21
11.80578	899.303	22.27832
11.8124	906.093	22.34668
11.8178	907.83	22.415
11.8232	908.8349	22.4834
11.82879	907.251	22.5518
11.8345	905.747	22.6201
11.8415	899.795	22.6885
11.8459	899.494	22.7568
11.8521	907.749	22.8252
11.8582	913.774	22.8936
11.8643	917.26	22.9619
11.8689	926.049	23.0303
11.8755	930.6701	23.0986
11.8807	930.229	23.167
11.8867	930.636	23.2354
11.8919	926.885	23.3037
11.8979	921.6441	23.37207
11.9031	920.673	23.44043
11.9088	924.788	23.5088
11.9148	929.29	23.5771
11.9203	934.292	23.6455
11.9259	941.483	23.7139
11.9312	946.992	23.7822
11.9377	950.114	23.8506
11.9443	951.0368	23.9189
11.9494	947.173	23.9873
11.9544	943.626	24.0557
11.96025	939.561	24.124
11.9657	942.893	24.1924
11.97157	945.106	24.2607
11.9772	950.644	24.3291
11.9832	956.105	24.3975
11.9888	962.3457	24.46582
11.9947	967.795	24.53418
12.0002	970.081	24.6025
12.0055	967.124	24.6709
12.0119	963.744	24.7393
12.0169	960.804	24.8076
12.02357	960.143	24.876
12.0285	959.899	24.9443
12.035	963.559	25.0127
12.0404	966.737	25.0811
12.04604	972.835	25.1494
12.0516	981.847	25.2178
12.0576	984.353	25.2861
12.0633	982.6051	25.3545
12.0694	981.4306	25.4229
12.0735	979.676	25.4912
12.0805	975.836	25.55957
12.0861	974.679	25.62793
12.0919	975.516	25.6963
12.0974	977.5553	25.7646
12.1022	983.448	25.833
12.1087	989.914	25.9014
12.11424	996.505	25.9697
12.1194	994.439	26.0381
12.1254	995.03	26.1064
12.1304	995.38	26.1748
12.1365	992.132	26.2432
12.1428	987.842	26.3115
12.1482	988.252	26.3799
12.154	988.27	26.4482
12.1582	990.3609	26.5166
12.16528	998.182	26.585
12.1711	1005.04	26.65332
12.1769	1005.54	26.72168
12.182	1006.822	26.79
12.1887	1010.38	26.8584
12.194	1006.209	26.9268
12.2	999.925	26.9951
12.2055	1000.5	27.0635
12.2123	998.124	27.1318
12.217	998.938	27.2002
12.2225	1007.17	27.2686
12.2279	1012.04	27.3369
12.23382	1012.5	27.4053
12.2397	1016.07	27.4736
12.2447	1021.748	27.542
12.2511	1018.09	27.6104
12.2558	1013.193	27.6787
12.263	1011.48	27.74707
12.2669	1007.41	27.81543
12.2739	1005.75	27.8838
12.27976	1011.69	27.9521
12.2854	1017.86	28.0205
12.2904	1018.52	28.0889
12.2959	1022.61	28.1572
12.3023	1029.87	28.2256
12.3074	1027.51	28.2939
12.3135	1021.69	28.3623
12.3195	1020.24	28.4307
12.3251	1015.23	28.499
12.3312	1013.19	28.5674
12.3356	1014.94	28.6357
12.3426	1017.94	28.7041
12.34707	1020.13	28.7725
12.3535	1024.34	28.84082
12.3597	1034	28.90918
12.3648	1033.91	28.9775
12.3703	1030.187	29.0459
12.3772	1028.57	29.1143
12.3818	1024.97	29.1826
12.388	1020.209	29.251
12.3931	1019.37	29.3193
12.399	1018.97	29.3877
12.4051	1022.03	29.4561
12.4109	1026.63	29.5244
12.41703	1036.59	29.5928
12.4224	1038.35	29.6611
12.4275	1037.772	29.7295
12.4338	1036.45	29.7979
12.43891	1031.062	29.8662
12.44389	1026.88	29.93457
12.4504	1023.04	30.00293
12.4567	1023.71	30.0713
12.4624	1022.35	30.1396
12.4671	1028.98	30.208
12.473	1035.78	30.2764
12.4782	1039.16	30.3447
12.4846	1041.51	30.4131
12.4901	1040.85	30.4814
12.4965	1036.76	30.5498
12.50217	1033.45	30.6182
12.5071	1027.69	30.6865
12.513	1023.96	30.7549
12.5203	1024.35	30.8232
12.5244	1030.01	30.8916
12.5296	1034.62	30.96
12.5355	1037.766	31.02832
12.5415	1044.31	31.09668
12.5477	1043.82	31.165
12.55333	1043.4	31.2334
12.5589	1040.5	31.3018
12.5637	1033.54	31.3701
12.571	1027.06	31.4385
12.5749	1025.65	31.5068
12.5809	1029.57	31.5752
12.5876	1032.38	31.6436
12.5933	1036.51	31.7119
12.5991	1044.01	31.7803
12.6046	1045.05	31.8486
12.6098	1045.662	31.917
12.6154	1044.85	31.9854
12.622	1039.04	32.0537
12.6272	1031.26	32.12207
12.6327	1028.31	32.19043
12.6383	1031.01	32.2588
12.6443	1030.93	32.3271
12.6501	1036.63	32.3955
12.6551	1043.32	32.4639
12.6613	1044.66	32.5322
12.6673	1046.9	32.6006
12.67285	1048.84	32.6689
12.6778	1043.53	32.7373
12.6844	1035.17	32.8057
12.6902	1031.61	32.874
12.6953	1032.53	32.9424
12.70154	1029.55	33.0107
12.70701	1033.68	33.0791
12.712	1041.3	33.1475
12.7176	1042.92	33.21582
12.7234	1047.1	33.28418
12.7299	1050.09	33.3525
12.73519	1047.88	33.4209
12.7408	1038.33	33.4893
12.7476	1035.26	33.5576
12.752	1035.05	33.626
12.7588	1032.212	33.6943
12.7643	1031.86	33.7627
12.76941	1036.31	33.8311
12.7756	1043.03	33.8994
12.7819	1045.61	33.9678
12.7861	1051.44	34.0361
12.7925	1050.45	34.1045
12.798	1043.18	34.1729
12.8031	1038.4	34.2412
12.8086	1038.5	34.30957
12.8148	1032.15	34.37793
12.8216	1030.2	34.4463
12.827	1036.5	34.5146
12.8315	1037.73	34.583
12.8377	1043.02	34.6514
12.844	1049.29	34.7197
12.8487	1050.34	34.7881
12.855	1046.144	34.8564
12.8607	1046.41	34.9248
12.8659	1042.7	34.9932
12.8725	1035.55	35.0615
12.8772	1032.29	35.1299
12.8836	1033.73	35.1982
12.8891	1036.75	35.2666
12.8949	1041.23	35.335
12.9011	1046.33	35.40332
12.9063	1050.74	35.47168
12.9123	1048.6	35.54
12.9183	1047.8	35.6084
12.92352	1045.77	35.6768
12.9293	1040	35.7451
12.93541	1035.03	35.8135
12.9405	1032.71	35.8818
12.9455	1034.77	35.9502
12.952	1038.61	36.0186
12.9587	1043.35	36.0869
12.9633	1045.59	36.1553
12.9695	1048.66	36.2236
12.9749	1051.18	36.292
12.9801	1048.89	36.3604
12.98608	1044.03	36.4287
12.992	1037.71	36.49707
12.9977	1033.65	36.56543
13.004	1033.81	36.6338
13.0087	1036.07	36.7021
13.0141	1039.55	36.7705
13.0204	1041.5	36.8389
13.0261	1046.09	36.9072
13.0329	1054.39	36.9756
13.0378	1051.96	37.0439
13.0427	1047.31	37.1123
13.0492	1042.46	37.1807
13.0548	1035.11	37.249
13.0591	1033.1	37.3174
13.0655	1034.21	37.3857
13.0716	1035.666	37.4541
13.07778	1038.54	37.5225
13.0837	1044.54	37.59082
13.0884	1050.64	37.65918
13.0944	1051.32	37.7275
13.10018	1050.33	37.7959
13.10556	1047.137	37.8643
13.1107	1038.67	37.9326
13.1174	1034.07	38.001
13.12208	1033.45	38.0693
13.1284	1031.77	38.1377
13.1341	1032.53	38.2061
13.1407	1039.08	38.2744
13.1453	1049.53	38.3428
13.1513	1050.82	38.4111
13.157	1051.1	38.4795
13.1632	1051.071	38.5479
13.1687	1042.19	38.6162
13.1736	1039.007	38.68457
13.1807	1035.89	38.75293
13.1856	1032.32	38.8213
13.192	1031.07	38.8896
13.1975	1037.02	38.958
13.2038	1045.61	39.0264
13.2085	1046.49	39.0947
13.2136	1050.83	39.1631
13.2203	1053.68	39.2314
13.2248	1046.53	39.2998
13.231	1040.19	39.3682
13.2373	1039.13	39.4365
13.2428	1033.03	39.5049
13.24874	1029.65	39.5732
13.2539	1033.5	39.6416
13.2599	1042.58	39.71
13.2644	1044.72	39.77832
13.2708	1051.06	39.84668
13.2759	1055.04	39.915
13.2821	1048.16	39.9834
13.285	1033.26	40.0127

Data Header:			0.254_solid_uprint_typei_4545_r0			Time:	60.0183	s	4/14/2019 4:23:50 AM
Data Acquisition:	Timed
Station Name:	ft40.cfg
Test File Name:	monotonic_0.2540_typei_solid_4545_uprint.tst
Displacement	Force	Running Time
mm	N	s
13.2858	1037.02	40.0225
13.2913	1042.05	40.09082
13.2977	1051.39	40.15918
13.3036	1050.65	40.2275
13.30806	1049.73	40.2959
13.3148	1047.3	40.3643
13.3191	1038.93	40.4326
13.3262	1034.17	40.501
13.3306	1033.06	40.5693
13.3374	1030.88	40.6377
13.3425	1032.04	40.7061
13.3487	1039.34	40.7744
13.3542	1047.167	40.8428
13.3608	1050.39	40.9111
13.3661	1050.64	40.9795
13.3709	1050.75	41.0479
13.3776	1042.699	41.1162
13.3834	1037.7	41.18457
13.3894	1036.27	41.25293
13.39365	1030.72	41.3213
13.40032	1027.75	41.3896
13.40538	1035.15	41.458
13.4117	1043.79	41.5264
13.41713	1047.04	41.5947
13.423	1050.25	41.6631
13.4282	1053.52	41.7314
13.43467	1046.98	41.7998
13.4395	1041.64	41.8682
13.4444	1037.75	41.9365
13.4509	1032.52	42.0049
13.4568	1027.83	42.0732
13.4638	1034.07	42.1416
13.4682	1040.16	42.21
13.4736	1042.42	42.27832
13.4795	1049.84	42.34668
13.48514	1054.061	42.415
13.4917	1049.3	42.4834
13.497	1046.074	42.5518
13.5013	1041.69	42.6201
13.508	1032.58	42.6885
13.5136	1027.11	42.7568
13.5197	1031.01	42.8252
13.5258	1036.21	42.8936
13.531	1040.111	42.9619
13.5378	1046.68	43.0303
13.5431	1051.58	43.0986
13.54737	1050.85	43.167
13.5541	1049.67	43.2354
13.5598	1045.13	43.3037
13.5648	1036.11	43.37207
13.5719	1028.85	43.44043
13.5764	1031.12	43.5088
13.5831	1033.03	43.5771
13.5883	1035.27	43.6455
13.5937	1041.45	43.7139
13.5977	1046.59	43.7822
13.6053	1050.66	43.8506
13.6112	1050.94	43.9189
13.6172	1048.31	43.9873
13.6212	1039.24	44.0557
13.6278	1031.23	44.124
13.6337	1033.15	44.1924
13.6395	1032.01	44.2607
13.6446	1032.3	44.3291
13.65105	1038.83	44.3975
13.6562	1044.4	44.46582
13.6622	1050.42	44.53418
13.668	1050.38	44.6025
13.6732	1049.98	44.6709
13.6786	1041.908	44.7393
13.68498	1037.19	44.8076
13.6902	1034.02	44.876
13.6962	1030.3	44.9443
13.7033	1030.49	45.0127
13.7071	1034.53	45.0811
13.7138	1039.41	45.1494
13.7192	1047.34	45.2178
13.7249	1051.29	45.2861
13.7311	1051.17	45.3545
13.7349	1046.58	45.4229
13.7409	1041.04	45.4912
13.74797	1037.68	45.55957
13.7537	1032.43	45.62793
13.7589	1030.39	45.6963
13.7652	1031.713	45.7646
13.7709	1034.1	45.833
13.7769	1043.42	45.9014
13.7817	1048.75	45.9697
13.78806	1049.627	46.0381
13.7933	1048.17	46.1064
13.7996	1046.256	46.1748
13.8049	1040.97	46.2432
13.8104	1034.5	46.3115
13.81613	1032.03	46.3799
13.8226	1029.73	46.4482
13.8264	1030.38	46.5166
13.8331	1038.34	46.585
13.8389	1044.6	46.65332
13.8439	1045.9	46.72168
13.8503	1047.55	46.79
13.8553	1049.16	46.8584
[...]
15.8814	1043.42	71.165
15.8882	1045.23	71.2334
15.8925	1039.125	71.3018
15.8984	1030.41	71.3701
15.9059	1025.71	71.4385
15.91183	1022.8	71.5068
15.9164	1017.09	71.5752
15.9215	1020.73	71.6436
15.9283	1028.28	71.7119
15.9335	1033.62	71.7803
15.939	1040.38	71.8486
15.9455	1044.25	71.917
15.9501	1042.198	71.9854
15.9565	1033.08	72.0537
15.9618	1030.57	72.12207
15.9678	1025.57	72.19043
15.9735	1018	72.2588
15.9789	1019.73	72.3271
15.9845	1021.36	72.3955
15.9907	1028.87	72.4639
15.9967	1036.48	72.5322
16.0018	1043.23	72.6006
16.0075	1043.29	72.6689
16.0129	1037.999	72.7373
16.0192	1038.02	72.8057
16.0242	1028.053	72.874
16.0294	1020.4	72.9424
16.0355	1018.505	73.0107
16.0417	1018.25	73.0791
16.0472	1023.07	73.1475
16.0535	1032.17	73.21582
16.0593	1038.82	73.28418
16.0641	1039.7	73.3525
16.0697	1040.49	73.4209
16.0762	1041.54	73.4893
16.0821	1032.62	73.5576
16.0878	1024.96	73.626
16.0931	1020.033	73.6943
16.0991	1017.97	73.7627
16.1041	1020.03	73.8311
16.11014	1026.35	73.8994
16.1157	1032.46	73.9678
16.1215	1037.63	74.0361
16.1271	1042.05	74.1045
16.1327	1043.6	74.1729
16.1377	1035.3	74.2412
16.1439	1029.8	74.30957
16.1499	1021.83	74.37793
16.15624	1019.4	74.4463
16.1609	1018.31	74.5146
16.1678	1021.02	74.583
16.1724	1026.4	74.6514
16.1784	1031.749	74.7197
16.1834	1042.37	74.7881
16.189	1044.01	74.8564
16.19524	1040.63	74.9248
16.201	1034.79	74.9932
16.2072	1026.02	75.0615
16.2129	1022.95	75.1299
16.2184	1017.8	75.1982
16.22435	1018.24	75.2666
16.2302	1019.01	75.335
16.23432	1026.71	75.40332
16.2409	1037.41	75.47168
16.2466	1041.95	75.54
16.2519	1041.96	75.6084
16.2585	1039.4	75.6768
16.2637	1031.92	75.7451
16.2688	1025.14	75.8135
16.2748	1021.09	75.8818
16.2804	1017	75.9502
16.2851	1015.97	76.0186
16.292	1023.48	76.0869
16.2988	1031.09	76.1553
16.3036	1037.18	76.2236
16.3097	1043.42	76.292
16.3161	1042.21	76.3604
16.3203	1035.48	76.4287
16.3261	1030.97	76.49707
16.3322	1024.488	76.56543
16.3378	1014.6	76.6338
16.34387	1013.554	76.7021
16.3489	1021.55	76.7705
16.3548	1025.78	76.8389
16.3601	1033.46	76.9072
16.36754	1041.1	76.9756
16.372	1041.1	77.0439
16.37657	1039.59	77.1123
16.3843	1036.37	77.1807
16.3893	1028.333	77.249
16.3954	1016.15	77.3174
16.4009	1013.7	77.3857
16.4063	1018.11	77.4541
16.411	1020.46	77.5225
16.4179	1027.78	77.59082
16.4232	1037.68	77.65918
16.4285	1039.05	77.7275
16.4352	1040.11	77.7959
16.43968	1038.86	77.8643
16.44622	1031.43	77.9326
16.4522	1019.739	78.001
16.4566	1015.92	78.0693
16.462	1018.98	78.1377
16.46859	1014.95	78.2061
16.4748	1022.14	78.2744
16.4795	1030.96	78.3428
16.48559	1035.48	78.4111
16.4923	1040.27	78.4795
16.4975	1042.21	78.5479
16.5024	1035.58	78.6162
16.5092	1025.88	78.68457
16.5145	1020.699	78.75293
16.5205	1019.43	78.8213
16.526	1013.09	78.8896
16.5321	1018.15	78.958
16.53689	1025.66	79.0264
16.5429	1031.83	79.0947
16.5484	1037.23	79.1631
16.5545	1042.96	79.2314
16.56	1037.56	79.2998
16.5654	1029.93	79.3682
16.5718	1027.33	79.4365
16.5763	1020.34	79.5049
16.5834	1013.51	79.5732
16.5889	1015.15	79.6416
16.59424	1020.53	79.71
16.6001	1025.98	79.77832
16.6057	1033.004	79.84668
16.6105	1039.72	79.915
16.6163	1037.509	79.9834
16.6192	1013.71	80.0127

Data Header:			0.254_solid_uprint_typei_4545_r0			Time:	86.3074	s	4/14/2019 4:24:16 AM
Data Acquisition:	Timed
Station Name:	ft40.cfg
Test File Name:	monotonic_0.2540_typei_solid_4545_uprint.tst
Displacement	Force	Running Time
mm	N	s
16.6211	1017.32	80.0225
16.6226	1032.98	80.0518
16.6246	1016.38	80.0811
16.6275	1038.55	80.1104
16.6306	1014.351	80.1396
16.6317	1037.47	80.1689
16.6343	1013.78	80.1982
16.6375	1036.66	80.2275
16.6402	1014.63	80.2568
16.6415	1035.65	80.2861
16.6437	1022.23	80.31543
16.6473	1030.77	80.3447
16.6501	1023.82	80.374
16.65189	1026.15	80.40332
16.6544	1027.71	80.4326
16.6566	1021.22	80.4619
16.659	1036.26	80.4912
16.6612	1018.26	80.5205
16.6638	1035.33	80.5498
16.6671	1014.21	80.5791
16.66897	1039.87	80.6084
16.6721	1014.2	80.6377
16.6743	1036.34	80.667
16.6769	1015.16	80.6963
16.6779	1037.335	80.7256
16.6817	1017.91	80.7549
16.6844	1029.15	80.78418
16.686	1022.612	80.8135
16.6888	1028.5	80.8428
16.6915	1027.12	80.87207
16.69442	1020.78	80.9014
16.696	1032.29	80.9307
16.6976	1016.05	80.96
16.7016	1034.79	80.9893
16.70377	1012.365	81.0186
16.706	1040.3	81.0479
16.7083	1013.01	81.0771
16.7113	1037.78	81.1064
16.713	1010.78	81.1357
16.7148	1036.86	81.165
16.7178	1015.17	81.1943
16.7208	1034.457	81.2236
16.7226	1020.93	81.25293
16.726	1028.65	81.2822
16.7281	1023.44	81.3115
16.7308	1021.74	81.34082
16.7331	1029.63	81.3701
16.7356	1018.19	81.3994
16.7376	1034.41	81.4287
16.7393	1015.79	81.458
16.7423	1038.686	81.4873
16.7456	1008.78	81.5166
16.7477	1037.07	81.5459
16.7496	1012.9	81.5752
16.7518	1039.57	81.6045
16.7542	1010.618	81.6338
16.75667	1034.96	81.6631
16.7593	1016.85	81.6924
16.7623	1028.98	81.72168
16.7637	1018.19	81.751
16.76679	1027.12	81.7803
16.7694	1025.84	81.80957
16.77223	1018.95	81.8389
16.7748	1027.22	81.8682
16.7754	1014.84	81.8975
16.7799	1033.36	81.9268
16.781	1011.3	81.9561
16.7853	1035.85	81.9854
16.7865	1010.69	82.0146
16.7884	1035.57	82.0439
16.7906	1008.78	82.0732
16.7943	1033.4	82.1025
16.79611	1012.235	82.1318
16.7994	1031.61	82.1611
16.8009	1017.68	82.19043
16.8032	1027.86	82.2197
16.8059	1019.83	82.249
16.809	1021.65	82.27832
16.811	1027.2	82.3076
16.8139	1019.21	82.3369
16.8157	1029.69	82.3662
16.8177	1012.68	82.3955
16.8206	1035.07	82.4248
16.8237	1011.23	82.4541
16.8263	1033.26	82.4834
16.8274	1011.41	82.5127
16.83	1036.057	82.542
16.83309	1010.67	82.5713
16.8352	1028.35	82.6006
16.8376	1013.79	82.6299
16.8395	1028.34	82.65918
16.843	1017.45	82.6885
16.84486	1021.93	82.7178
16.8485	1024.56	82.74707
16.8507	1018.6	82.7764
16.8527	1025.62	82.8057
16.85474	1010.74	82.835
16.8575	1031.881	82.8643
16.8593	1009.89	82.8936
16.8618	1033.99	82.9229
16.8638	1008.759	82.9521
16.86739	1035.06	82.9814
16.8699	1007.16	83.0107
16.8714	1032.42	83.04
16.8741	1013.72	83.0693
16.8766	1030.04	83.0986
16.8791	1016.45	83.12793
16.8803	1026.37	83.1572
16.8844	1020.21	83.1865
16.8867	1018.37	83.21582
16.8899	1026.08	83.2451
16.8913	1015.91	83.2744
16.8939	1030.42	83.3037
16.8963	1007.05	83.333
16.8998	1031.87	83.3623
16.9009	1008.51	83.3916
16.9034	1033.12	83.4209
16.907	1005.65	83.4502
16.9081	1035.29	83.4795
16.9108	1008.63	83.5088
16.9133	1029.31	83.5381
16.916	1007.97	83.5674
16.918	1027.46	83.59668
16.9209	1016.6	83.626
16.9227	1021.22	83.6553
16.9261	1018.81	83.68457
16.9287	1015.89	83.7139
16.931	1022.89	83.7432
16.93161	1010.33	83.7725
16.9351	1026.92	83.8018
16.938	1006.04	83.8311
16.9394	1028.7	83.8604
16.9432	1003.22	83.8896
16.9448	1028.79	83.9189
16.9474	1001.11	83.9482
16.9504	1026.67	83.9775
16.9523	1004.09	84.0068
16.955	1024.697	84.0361
16.9569	1005.8	84.06543
16.9589	1016.28	84.0947
16.96286	1009.7	84.124
16.9653	1010.76	84.15332
16.968	1011.51	84.1826
16.9702	1003.321	84.2119
16.9723	1018.01	84.2412
16.9739	996.023	84.2705
16.977	1012.645	84.2998
16.9792	992.261	84.3291
16.98238	1016.22	84.3584
16.98394	989.064	84.3877
16.9862	1007.48	84.417
16.98933	986.603	84.4463
16.9915	1001.35	84.4756
17.002	21.6247	84.5049
17.0011	-41.0005	84.53418
17.0024	-35.51152	84.5635
17.00316	-43.45863	84.5928
17.0052	-32.6677	84.62207
17.0075	-49.14954	84.6514
17.0103	-27.4528	84.6807
17.0119	-50.0885	84.71
17.0145	-26.5718	84.7393
17.0174	-52.4297	84.7686
17.0196	-26.1769	84.7979
17.0222	-53.58461	84.8271
17.0239	-27.9844	84.8564
17.0268	-47.5575	84.8857
17.0288	-31.3118	84.915
17.0321	-44.7304	84.9443
17.0339	-33.67654	84.9736
17.0361	-40.4776	85.00293
17.0385	-40.39119	85.0322
17.0402	-38.24622	85.0615
17.0449	-40.7327	85.09082
17.0456	-31.6847	85.1201
17.04854	-50.6077	85.1494
17.0511	-28.8803	85.1787
17.0526	-48.37088	85.208
17.05492	-27.3798	85.2373
17.0583	-54.7069	85.2666
17.06045	-24.0011	85.2959
17.06221	-49.8535	85.3252
17.0647	-28.7518	85.3545
17.0678	-51.9617	85.3838
17.0698	-30.7281	85.4131
17.0729	-46.07962	85.4424
17.0741	-35.4879	85.47168
17.07683	-43.3538	85.501
17.08	-38.904	85.5303
17.0819	-37.7594	85.55957
17.0852	-46.6123	85.5889
17.08732	-34.6724	85.6182
17.0887	-47.1942	85.6475
17.0924	-28.1135	85.6768
17.0947	-51.13604	85.7061
17.0971	-26.9975	85.7354
17.0993	-52.50869	85.7646
17.1011	-28.8507	85.7939
17.1039	-49.9188	85.8232
17.1073	-26.8154	85.8525
17.1091	-49.3219	85.8818
17.1116	-32.5592	85.9111
17.1146	-43.9107	85.94043
17.1161	-38.221	85.9697
17.1181	-40.9743	85.999
17.1218	-41.0254	86.02832
17.1234	-34.5974	86.0576
17.125	-44.7526	86.0869
17.1286	-34.8084	86.1162
17.1314	-51.1793	86.1455
17.1339	-27.3984	86.1748
17.1359	-49.8593	86.2041
17.13884	-28.3441	86.2334
17.1409	-49.2419	86.2627
17.1431	-28.0587	86.292
17.1436	-28.58791	86.3018