File: data/processed_data_files/tensile/0.254_hd_dimension_typeiv_4545_r(4).dat
MTS793|BTW|ENU|1|2|.|/|:|1|0|0|A

Data Header:			0.254_hd_dimension_typeiv_4545_r0			Time:	20.0176	s	4/13/2019 8:19:56 PM
Data Acquisition:	Timed
Station Name:	ft40.cfg
Test File Name:	monotonic_0.2540_typeiv_hd_4545_dimension.tst
Displacement	Force	Running Time
mm	N	s
-40.0353	-313.19	0.0227051
-40.0338	-313.011	0.0910645
-40.0284	-308.31	0.159424
-40.0219	-306.017	0.2277832
-40.0168	-306.115	0.296143
-40.0113	-301.648	0.364502
-40.0052	-293.849	0.432861
-39.9999	-292.193	0.5012207
-39.9947	-292.178	0.56958
-39.9884	-287.235	0.637939
-39.9823	-289.5488	0.706299
-39.9764	-286.824	0.7746582
-39.9714	-284.461	0.843018
-39.9655	-282.298	0.911377
-39.9617	-282.776	0.979736
-39.954	-277.722	1.0481
-39.9485	-269.186	1.11646
-39.9437	-267.908	1.18481
-39.9372	-264.104	1.25317
-39.9307	-261.634	1.32153
-39.9258	-262.148	1.38989
-39.92	-260.564	1.458252
-39.9141	-259.422	1.52661
-39.9078	-256.692	1.59497
-39.9025	-255.824	1.66333
-39.89854	-252.7639	1.73169
-39.8908	-244.219	1.80005
-39.886	-241.126	1.86841
-39.8802	-237.972	1.93677
-39.8757	-236.009	2.005127
-39.8693	-234.439	2.07349
-39.8625	-230.53	2.14185
-39.8574	-229.472	2.21021
-39.8517	-229.432	2.27856
-39.845	-228.224	2.34692
-39.8398	-225.164	2.41528
-39.8346	-217.714	2.48364
-39.83012	-215.496	2.552002
-39.8234	-209.523	2.62036
-39.8173	-206.412	2.68872
-39.8129	-204.558	2.75708
-39.8068	-200.983	2.82544
-39.8006	-199.736	2.8938
-39.7948	-200.8185	2.96216
-39.7893	-200.602	3.03052
-39.7829	-195.323	3.098877
-39.7778	-189.106	3.16724
-39.7718	-187.4	3.2356
-39.7664	-183.066	3.30396
-39.7605	-176.962	3.37231
-39.7552	-176.816	3.44067
-39.7492	-170.5	3.50903
-39.7436	-167.794	3.57739
-39.73761	-168.662	3.645752
-39.7314	-171.907	3.71411
-39.7262	-165.604	3.78247
-39.7212	-161.4471	3.85083
-39.7156	-159.506	3.91919
-39.7089	-154.058	3.98755
-39.7018	-148.6873	4.05591
-39.6987	-146.3531	4.12427
-39.6918	-141.784	4.192627
-39.6856	-138.591	4.26099
-39.6818	-136.9082	4.32935
-39.6763	-139.623	4.39771
-39.6697	-136.37	4.46606
-39.6639	-128.942	4.53442
-39.6587	-130.075	4.60278
-39.65218	-126.0463	4.67114
-39.6464	-118.595	4.739502
-39.6398	-115.357	4.80786
-39.6358	-111.328	4.87622
-39.6299	-106.478	4.94458
-39.6242	-106.8415	5.01294
-39.61842	-106.3327	5.0813
-39.6133	-105.75	5.14966
-39.6075	-99.4246	5.21802
-39.6009	-99.94503	5.286377
-39.5942	-95.271	5.35474
-39.5904	-91.0258	5.4231
-39.583	-86.2886	5.49146
-39.5787	-79.4239	5.55981
-39.5738	-75.6113	5.62817
-39.56757	-74.328	5.69653
-39.5624	-74.4315	5.76489
-39.5541	-71.66497	5.833252
-39.5494	-68.7815	5.90161
-39.544	-66.5173	5.96997
-39.5393	-63.99876	6.03833
-39.53352	-59.5589	6.10669
-39.5279	-56.9233	6.17505
-39.5218	-48.9206	6.24341
-39.5166	-44.553	6.31177
-39.5085	-46.2698	6.380127
-39.5038	-44.05917	6.44849
-39.4993	-39.3801	6.51685
-39.4928	-36.5555	6.58521
-39.4873	-38.1392	6.65356
-39.4818	-34.8451	6.72192
-39.47636	-29.8728	6.79028
-39.4695	-27.9859	6.85864
-39.4638	-21.3151	6.927002
-39.4591	-15.9929	6.99536
-39.4519	-15.0873	7.06372
-39.446	-13.6334	7.13208
-39.4421	-9.1675	7.20044
-39.4359	-5.31145	7.2688
-39.4296	-8.34061	7.33716
-39.4243	-5.5995	7.40552
-39.4196	0.828223	7.473877
-39.4125	1.27152	7.54224
-39.4082	8.48606	7.6106
-39.402	15.1502	7.67896
-39.396	16.4493	7.74731
-39.3905	17.8309	7.81567
-39.3843	22.55344	7.88403
-39.3782	27.6214	7.95239
-39.3727	25.5613	8.020752
-39.367	25.64188	8.08911
-39.3629	31.1175	8.15747
-39.3557	33.1824	8.22583
-39.3516	36.3492	8.29419
-39.3447	42.5605	8.36255
-39.3388	47.2578	8.43091
-39.3335	48.2822	8.49927
-39.3276	53.3314	8.567627
-39.3216	57.72879	8.63599
-39.3161	58.3673	8.70435
-39.3101	59.4437	8.77271
-39.3054	61.177	8.84106
-39.2985	64.5808	8.90942
-39.2929	69.0039	8.97778
-39.2864	74.1161	9.04614
-39.2819	76.5633	9.114502
-39.2756	78.1632	9.18286
-39.2701	84.3612	9.25122
-39.2656	88.5079	9.31958
-39.259	89.0648	9.38794
-39.2537	93.2648	9.4563
-39.24852	92.1161	9.52466
-39.2426	94.6033	9.59302
-39.2354	99.0705	9.661377
-39.231	104.207	9.72974
-39.2267	104.726	9.7981
-39.2187	109.768	9.86646
-39.2132	114.659	9.93481
-39.209	120.705	10.0032
-39.203	121.276	10.0715
-39.1967	123.122	10.1399
-39.1917	124.893	10.2083
-39.1855	124.565	10.2766
-39.1804	128.102	10.345
-39.1743	132.644	10.41333
-39.1683	134.034	10.4817
-39.1636	137.94	10.55
-39.1586	146.157	10.6184
-39.1518	151.438	10.6868
-39.145	150.741	10.7551
-39.1405	154.084	10.8235
-39.13475	156.789	10.8918
-39.1285	154.892	10.9602
-39.12355	158.758	11.0286
-39.1173	162.515	11.0969
-39.1119	162.7637	11.1653
-39.105	165.502	11.2336
-39.1009	173.779	11.302
-39.0938	180.773	11.3704
-39.0894	180.5372	11.4387
-39.0828	184.224	11.50708
-39.0775	187.353	11.5754
-39.0713	187.251	11.6438
-39.0659	187.901	11.7122
-39.0604	191.489	11.7805
-39.0543	191.083	11.8489
-39.0493	193.714	11.9172
-39.043	200.532	11.9856
-39.03907	207.618	12.054
-39.0318	210.3954	12.1223
-39.0254	215.065	12.1907
-39.0217	215.621	12.259
-39.0147	218.451	12.3274
-39.0089	219.0074	12.3958
-39.0032	220.551	12.4641
-38.9988	221.735	12.5325
-38.9913	223.782	12.60083
-38.9867	229.044	12.6692
-38.9795	235.863	12.7375
-38.9744	238.434	12.8059
-38.9684	243.583	12.8743
-38.96368	243.102	12.9426
-38.9576	247.2307	13.011
-38.9516	249.043	13.0793
-38.9458	251.452	13.1477
-38.94186	250.301	13.2161
-38.9359	250.282	13.2844
-38.9293	258.035	13.3528
-38.9245	261.132	13.4211
-38.9183	264.56	13.4895
-38.9127	270.412	13.5579
-38.9071	275.61	13.6262
-38.9017	274.3967	13.69458
-38.8965	280.371	13.7629
-38.8892	281.341	13.8313
-38.88409	279.567	13.8997
-38.8778	278.709	13.968
-38.8725	283.91	14.0364
-38.8663	289.506	14.1047
-38.8616	291.041	14.1731
-38.8542	296.665	14.2415
-38.8494	300.726	14.3098
-38.8442	303.28	14.3782
-38.8386	306.481	14.4465
-38.8323	309.018	14.5149
-38.8265	306.35	14.5833
-38.8214	304.525	14.6516
-38.8158	309.808	14.72
-38.8097	315.744	14.78833
-38.8037	316.19	14.8567
-38.7984	318.996	14.925
-38.7925	327.227	14.9934
-38.7877	329.69	15.0618
-38.7814	333.083	15.1301
-38.7756	335.869	15.1985
-38.7706	333.076	15.2668
-38.7645	332.692	15.3352
-38.7582	335.879	15.4036
-38.7531	339.17	15.4719
-38.74712	339.964	15.5403
-38.7415	344.531	15.6086
-38.7365	350.977	15.677
-38.7305	353.669	15.7454
-38.7242	357.3876	15.8137
-38.7186	359.996	15.88208
-38.713	360.013	15.9504
-38.7076	358.316	16.0188
-38.7017	361.693	16.0872
-38.6962	363.1886	16.1555
-38.689	363.116	16.2239
-38.684	368.155	16.2922
-38.6785	371.601	16.3606
-38.6722	376.481	16.429
-38.66803	382.729	16.4973
-38.6621	384.292	16.5657
-38.6546	382.896	16.634
-38.6502	383.1647	16.7024
-38.6451	387.05	16.7708
-38.6382	386.79	16.8391
-38.6329	386.309	16.9075
-38.6278	388.9241	16.97583
-38.62281	392.2749	17.0442
-38.6169	396.529	17.1125
-38.6107	402.485	17.1809
-38.6048	407.029	17.2493
-38.59866	403.613	17.3176
-38.5928	404.18	17.386
-38.5882	410.188	17.4543
-38.5833	411.43	17.5227
-38.5755	407.842	17.5911
-38.5715	410.1575	17.6594
-38.5656	414.6593	17.7278
-38.55941	414.947	17.7961
-38.5544	422.68	17.8645
-38.5484	426.394	17.9329
-38.5418	425.835	18.0012
-38.5364	426.422	18.06958
-38.5314	429.9086	18.1379
-38.5249	430.1665	18.2063
-38.5196	426.696	18.2747
-38.51413	428.537	18.343
-38.5076	431.384	18.4114
-38.502	432.706	18.4797
-38.4965	436.736	18.5481
-38.4922	441.171	18.6165
-38.4848	441.725	18.6848
-38.48	442.973	18.7532
-38.4733	446.184	18.8215
-38.46838	447.618	18.8899
-38.4621	444.374	18.9583
-38.457	443.256	19.0266
-38.4507	446.065	19.095
-38.4453	447.9361	19.16333
-38.4395	449.954	19.2317
-38.43428	453.747	19.3
-38.4292	455.109	19.3684
-38.4224	454.773	19.4368
-38.41824	459.047	19.5051
-38.4118	461.193	19.5735
-38.4057	459.487	19.6418
-38.4002	457.279	19.7102
-38.3944	457.265	19.7786
-38.3889	456.424	19.8469
-38.38308	459.4425	19.9153
-38.3776	462.573	19.9836
-38.3739	464.466	20.0129

Data Header:			0.254_hd_dimension_typeiv_4545_r0			Time:	40.0181	s	4/13/2019 8:20:16 PM
Data Acquisition:	Timed
Station Name:	ft40.cfg
Test File Name:	monotonic_0.2540_typeiv_hd_4545_dimension.tst
Displacement	Force	Running Time
mm	N	s
-38.3734	464.366	20.0227
-38.3688	460.765	20.0911
-38.3617	458.138	20.1594
-38.3564	460.329	20.2278
-38.35215	464.207	20.2961
-38.34549	467.035	20.3645
-38.3399	468.948	20.4329
-38.3345	471.243	20.5012
-38.3286	469.891	20.56958
-38.3232	467.485	20.6379
-38.3169	468.245	20.7063
-38.31168	467.565	20.7747
-38.3056	464.594	20.843
-38.3011	464.582	20.9114
-38.2943	463.9425	20.9797
-38.2879	470.058	21.0481
-38.2829	470.556	21.1165
-38.2774	472.821	21.1848
-38.2707	470.688	21.2532
-38.2647	471.289	21.3215
-38.2594	470.334	21.3899
-38.25436	467.626	21.4583
-38.2491	466.846	21.5266
-38.2434	467.232	21.595
-38.2363	464.773	21.66333
-38.231	468.819	21.7317
-38.2252	469.601	21.8
-38.2194	471.671	21.8684
-38.2132	469.53	21.9368
-38.2096	471.394	22.0051
-38.2029	474.911	22.0735
-38.1973	469.8129	22.1418
-38.1908	467.299	22.2102
-38.1861	467.495	22.2786
-38.1811	464.84	22.3469
-38.1732	467.184	22.4153
-38.1685	469.479	22.4836
-38.1638	470.646	22.552
-38.1568	469.607	22.6204
-38.1512	470.768	22.6887
-38.147	474.809	22.75708
-38.1411	472.548	22.8254
-38.1345	468.889	22.8938
-38.1296	468.125	22.9622
-38.1225	468.505	23.0305
-38.1176	465.747	23.0989
-38.1113	468.994	23.1672
-38.1064	471.771	23.2356
-38.1011	468.495	23.304
-38.0927	469.605	23.3723
-38.0879	475.984	23.4407
-38.0834	474.787	23.509
-38.0771	470.536	23.5774
-38.0718	469.024	23.6458
-38.0659	467.147	23.7141
-38.0609	467.589	23.7825
-38.0556	468.509	23.85083
-38.0486	468.192	23.9192
-38.0446	467.784	23.9875
-38.0381	471.293	24.0559
-38.03231	475.735	24.1243
-38.0269	475.031	24.1926
-38.0201	472.318	24.261
-38.0145	470.101	24.3293
-38.0093	468.498	24.3977
-38.0019	468.4892	24.4661
-37.9976	468.758	24.5344
-37.9931	467.953	24.6028
-37.9866	467.8761	24.6711
-37.9803	469.88	24.7395
-37.976	474.775	24.8079
-37.9692	474.195	24.8762
-37.9626	472.62	24.94458
-37.9576	473.23	25.0129
-37.9527	469.883	25.0813
-37.94643	469.217	25.1497
-37.9407	469.119	25.218
-37.9355	466.788	25.2864
-37.9294	465.561	25.3547
-37.9234	468.342	25.4231
-37.9167	473.253	25.4915
-37.91206	473.417	25.5598
-37.9071	473	25.6282
-37.9006	474.239	25.6965
-37.8954	472.744	25.7649
-37.8898	469.288	25.8333
-37.8834	469.685	25.9016
-37.8782	468.551	25.97
-37.87204	465.713	26.03833
-37.86705	466.299	26.1067
-37.8615	471.813	26.175
-37.8547	473.546	26.2434
-37.8486	472.418	26.3118
-37.8438	474.0162	26.3801
-37.8387	474.027	26.4485
-37.8328	471.035	26.5168
-37.8269	470.0466	26.5852
-37.8199	469.688	26.6536
-37.8157	464.64	26.7219
-37.8092	464.873	26.7903
-37.8029	469.739	26.8586
-37.7989	472.375	26.927
-37.7927	470.759	26.9954
-37.7865	473.435	27.0637
-37.7799	474.571	27.13208
-37.7752	473.772	27.2004
-37.7702	471.118	27.2688
-37.7638	470.9516	27.3372
-37.7585	465.633	27.4055
-37.7528	465.334	27.4739
-37.7471	467.295	27.5422
-37.7413	471.437	27.6106
-37.7361	472.044	27.679
-37.7308	474.574	27.7473
-37.725	473.436	27.8157
-37.718	474.517	27.884
-37.7135	473.511	27.9524
-37.7069	469.434	28.0208
-37.7017	468.4072	28.0891
-37.6953	465.419	28.1575
-37.6902	467.581	28.22583
-37.6843	466.919	28.2942
-37.679	468.4075	28.3625
-37.6728	472.081	28.4309
-37.6673	473.154	28.4993
-37.6624	473.916	28.5676
-37.655	473.097	28.636
-37.6506	472.995	28.7043
-37.6446	466.795	28.7727
-37.6391	463.723	28.8411
-37.6338	467.259	28.9094
-37.6277	467.989	28.9778
-37.6219	468.218	29.0461
-37.6162	471.983	29.1145
-37.6112	473.178	29.1829
-37.60482	471.226	29.2512
-37.59869	474.214	29.31958
-37.5926	474.554	29.3879
-37.58823	468.111	29.4563
-37.5823	464.643	29.5247
-37.5771	466.209	29.593
-37.5714	467.665	29.6614
-37.56427	466.809	29.7297
-37.56041	468.908	29.7981
-37.5534	472.395	29.8665
-37.5481	474.014	29.9348
-37.5418	473.027	30.0032
-37.5353	474.614	30.0715
-37.5293	471.287	30.1399
-37.5245	467.205	30.2083
-37.52021	467.981	30.2766
-37.5139	468.4007	30.345
-37.5083	466.32	30.41333
-37.5023	467.183	30.4817
-37.4963	470.099	30.55
-37.4909	472.257	30.6184
-37.4837	474.781	30.6868
-37.4796	473.237	30.7551
-37.473	471.68	30.8235
-37.4673	467.664	30.8918
-37.4618	466.837	30.9602
-37.4571	467.137	31.0286
-37.4508	465.793	31.0969
-37.4456	467.009	31.1653
-37.4402	467.878	31.2336
-37.4337	469.32	31.302
-37.427	473.258	31.3704
-37.4235	475.199	31.4387
-37.4177	472.987	31.50708
-37.4101	468.566	31.5754
-37.4057	469.983	31.6438
-37.4004	467.834	31.7122
-37.3944	465.126	31.7805
-37.3889	467.387	31.8489
-37.3828	466.329	31.9172
-37.3779	466.563	31.9856
-37.3713	470.438	32.054
-37.3653	473.912	32.1223
-37.3586	472.969	32.1907
-37.354	467.5835	32.259
-37.3485	470.906	32.3274
-37.3425	470.727	32.3958
-37.3362	466.789	32.4641
-37.3314	465.808	32.5325
-37.3258	467.047	32.60083
-37.3204	465.907	32.6692
-37.3139	469.45	32.7375
-37.3089	472.575	32.8059
-37.3032	472.779	32.8743
-37.2968	469.382	32.9426
-37.291	470.0311	33.011
-37.2856	471.213	33.0793
-37.27932	467.273	33.1477
-37.2735	464.4574	33.2161
-37.26881	466.221	33.2844
-37.2634	464.022	33.3528
-37.2576	466.845	33.4211
-37.2517	469.87	33.4895
-37.2457	471.688	33.5579
-37.2406	469.543	33.6262
-37.2343	470.071	33.69458
-37.2287	470.877	33.7629
-37.2223	468.01	33.8313
-37.2161	467.007	33.8997
-37.2121	463.826	33.968
-37.2065	464.9313	34.0364
-37.2009	467.769	34.1047
-37.1941	467.623	34.1731
-37.1887	468.682	34.2415
-37.1822	469.049	34.3098
-37.1777	469.118	34.3782
-37.1716	472.351	34.4465
-37.1666	468.807	34.5149
-37.1609	465.8331	34.5833
-37.155	465.6423	34.6516
-37.1492	462.299	34.72
-37.1434	465.469	34.78833
-37.1372	468.0083	34.8567
-37.1318	467.331	34.925
-37.126	466.1673	34.9934
-37.12096	471.076	35.0618
-37.1148	473.764	35.1301
-37.1091	469.191	35.1985
-37.10342	467.374	35.2668
-37.0979	467.766	35.3352
-37.0925	463.441	35.4036
-37.0862	465.169	35.4719
-37.0808	464.161	35.5403
-37.07486	466.692	35.6086
-37.0687	465.814	35.677
-37.064	469.357	35.7454
-37.0568	472.331	35.8137
-37.0521	471.042	35.88208
-37.0459	470.398	35.9504
-37.04	469.426	36.0188
-37.0352	466.159	36.0872
-37.02914	465.777	36.1555
-37.0241	464.177	36.2239
-37.0174	466.097	36.2922
-37.0118	463.742	36.3606
-37.0069	466.075	36.429
-37.0002	472.699	36.4973
-36.9958	471.726	36.5657
-36.9899	470.3	36.634
-36.98394	470.307	36.7024
-36.9785	465.94	36.7708
-36.9728	465.751	36.8391
-36.9668	464.868	36.9075
-36.9611	464.886	36.97583
-36.9549	463.933	37.0442
-36.95023	465.508	37.1125
-36.9449	470.377	37.1809
-36.9383	471.778	37.2493
-36.9327	470.385	37.3176
-36.92799	470.232	37.386
-36.9215	468.2	37.4543
-36.9157	467.686	37.5227
-36.9093	466.731	37.5911
-36.9045	464.093	37.6594
-36.8984	461.4476	37.7278
-36.89257	463.886	37.7961
-36.8867	467.372	37.8645
-36.8806	468.7037	37.9329
-36.8752	470.646	38.0012
-36.8689	470.196	38.06958
-36.864	468.716	38.1379
-36.8579	468.02	38.2063
-36.8527	466.593	38.2747
-36.8476	464.472	38.343
-36.8398	459.846	38.4114
-36.836	461.479	38.4797
-36.83	466.877	38.5481
-36.8252	466.9245	38.6165
-36.8189	468.961	38.6848
-36.8128	471.993	38.7532
-36.8076	470.369	38.8215
-36.8013	467.46	38.8899
-36.7952	467.146	38.9583
-36.7908	464.389	39.0266
-36.78413	460.765	39.095
-36.77895	460.372	39.16333
-36.7727	466.418	39.2317
-36.7671	467.222	39.3
-36.761	466.722	39.3684
-36.7558	470.511	39.4368
-36.7501	471.273	39.5051
-36.7454	470.284	39.5735
-36.7384	467.65	39.6418
-36.7328	466.629	39.7102
-36.7278	462.33	39.7786
-36.7215	458.168	39.8469
-36.7164	463.375	39.9153
-36.7115	465.599	39.9836
-36.70845	465.43	40.0129

Data Header:			0.254_hd_dimension_typeiv_4545_r0			Time:	49.5376	s	4/13/2019 8:20:25 PM
Data Acquisition:	Timed
Station Name:	ft40.cfg
Test File Name:	monotonic_0.2540_typeiv_hd_4545_dimension.tst
Displacement	Force	Running Time
mm	N	s
-36.7077	463.826	40.0227
-36.7037	468.398	40.0618
-36.7001	462.8071	40.10083
-36.6978	466.634	40.1399
-36.6948	465.1	40.179
-36.69075	462.239	40.218
-36.6869	470.2565	40.25708
-36.6834	460.168	40.2961
-36.681	463.723	40.3352
-36.6766	469.422	40.3743
-36.6744	459.282	40.41333
-36.67207	468.172	40.4524
-36.6689	467.1171	40.4915
-36.6659	460.226	40.5305
-36.66246	467.724	40.56958
-36.659	466.3461	40.6086
-36.6548	461.433	40.6477
-36.6519	469.629	40.6868
-36.6483	462.045	40.72583
-36.6449	466.238	40.7649
-36.6427	466.389	40.804
-36.639	465.194	40.843
-36.6351	470.545	40.88208
-36.6326	465.2012	40.9211
-36.6289	466.067	40.9602
-36.6253	469.066	40.9993
-36.623	464.501	41.03833
-36.619	467.635	41.0774
-36.61681	468.518	41.1165
-36.614	463.353	41.1555
-36.6094	469.274	41.19458
-36.6065	465.692	41.2336
-36.6019	463.918	41.2727
-36.5992	468.319	41.3118
-36.5954	462.879	41.35083
-36.5928	466.589	41.3899
-36.5896	463.686	41.429
-36.58744	463.682	41.468
-36.5844	469.65	41.50708
-36.5793	462.026	41.5461
-36.57695	464.918	41.5852
-36.5728	470.02	41.6243
-36.5709	461.061	41.66333
-36.5665	465.913	41.7024
-36.5638	467.034	41.7415
-36.56012	457.086	41.7805
-36.5573	468.283	41.81958
-36.5551	465.063	41.8586
-36.5508	460.241	41.8977
-36.5466	468.542	41.9368
-36.5452	462.099	41.97583
-36.5408	464.3988	42.0149
-36.5363	465.508	42.054
-36.5346	463.681	42.093
-36.5317	466.454	42.13208
-36.5279	463.632	42.1711
-36.5256	465.6167	42.2102
-36.5216	468.188	42.2493
-36.5194	462.754	42.28833
-36.5145	466.894	42.3274
-36.5119	467.992	42.3665
-36.5078	462.02	42.4055
-36.5054	469.621	42.44458
-36.5023	465.309	42.4836
-36.4983	464.229	42.5227
-36.495	467.651	42.5618
-36.493	462.409	42.60083
-36.4893	466.804	42.6399
-36.4858	464.346	42.679
-36.4816	463.818	42.718
-36.4797	466.261	42.75708
-36.475	461.478	42.7961
-36.4722	462.587	42.8352
-36.4694	468.517	42.8743
-36.4663	459.489	42.91333
-36.4631	465.366	42.9524
-36.4598	465.984	42.9915
-36.4572	457.553	43.0305
-36.4534	466.544	43.06958
-36.45	462.272	43.1086
-36.44698	460.217	43.1477
-36.4442	464.903	43.1868
-36.4405	460.009	43.22583
-36.4373	460.932	43.2649
-36.433	464.358	43.304
-36.43	462.1199	43.343
-36.4275	464.21	43.38208
-36.4235	462.835	43.4211
-36.4202	459.93	43.4602
-36.4171	465.367	43.4993
-36.4134	460.319	43.53833
-36.4108	465.239	43.5774
-36.40733	464.1156	43.6165
-36.4054	460.205	43.6555
-36.4013	470.6106	43.69458
-36.3984	461.376	43.7336
-36.39341	464.15	43.7727
-36.3906	467.725	43.8118
-36.3886	461.764	43.85083
-36.3855	464.8074	43.8899
-36.3814	465.014	43.929
-36.3785	460.539	43.968
-36.3742	465.702	44.00708
-36.3721	461.9679	44.0461
-36.3682	463.333	44.0852
-36.3661	467.228	44.1243
-36.3626	459.351	44.16333
-36.3588	465.154	44.2024
-36.3553	461.703	44.2415
-36.3522	457.822	44.2805
-36.3491	465.464	44.31958
-36.3465	460.2453	44.3586
-36.3418	458.354	44.3977
-36.3388	464.983	44.4368
-36.3353	460.04	44.47583
-36.333	459.168	44.5149
-36.3296	462.953	44.554
-36.3248	458.63	44.593
-36.3235	463.285	44.63208
-36.319	461.024	44.6711
-36.3163	460.499	44.7102
-36.3132	463.442	44.7493
-36.3099	458.503	44.78833
-36.3053	463.229	44.8274
-36.3034	460.127	44.8665
-36.2992	458.521	44.9055
-36.2971	464.344	44.94458
-36.2935	459.984	44.9836
-36.2903	461.034	45.0227
-36.2879	465.433	45.0618
-36.2834	456.961	45.10083
-36.2816	463.116	45.1399
-36.27726	464.74	45.179
-36.273	458.458	45.218
-36.2724	465.342	45.25708
-36.2684	460.316	45.2961
-36.2653	460.867	45.3352
-36.261	463.772	45.3743
-36.257	456.726	45.41333
-36.2552	464.364	45.4524
-36.251	461.712	45.4915
-36.2482	457.7002	45.5305
-36.2435	463.7063	45.56958
-36.2419	459.535	45.6086
-36.2387	455.412	45.6477
-36.2361	463.014	45.6868
-36.2316	454.428	45.72583
-36.2289	457.053	45.7649
-36.2254	460.746	45.804
-36.2217	454.226	45.843
-36.2179	459.162	45.88208
-36.2158	454.04	45.9211
-36.21199	456.8855	45.9602
-36.2096	456.022	45.9993
-36.2058	454.502	46.03833
-36.2016	457.386	46.0774
-36.1981	452.412	46.1165
-36.1958	449.181	46.1555
-36.1889	-22.70746	46.19458
-36.1885	-39.9991	46.2336
-36.1858	-41.6279	46.2727
-36.1827	-38.8402	46.3118
-36.1801	-49.2415	46.35083
-36.1758	-40.915	46.3899
-36.17244	-40.3986	46.429
-36.1691	-46.5195	46.468
-36.1665	-37.6672	46.50708
-36.1628	-42.4266	46.5461
-36.1593	-41.55872	46.5852
-36.1561	-41.5797	46.6243
-36.1535	-43.332	46.66333
-36.14967	-39.8223	46.7024
-36.14785	-40.0318	46.7415
-36.1446	-43.3438	46.7805
-36.14098	-37.2145	46.81958
-36.1369	-43.5354	46.8586
-36.1343	-43.6042	46.8977
-36.131	-37.8604	46.9368
-36.12767	-47.8707	46.97583
-36.1242	-40.6615	47.0149
-36.1216	-41.8707	47.054
-36.1171	-46.5195	47.093
-36.1152	-41.6457	47.13208
-36.11216	-44.7359	47.1711
-36.1078	-44.1519	47.2102
-36.1054	-43.2936	47.2493
-36.1026	-46.8868	47.28833
-36.0981	-40.971	47.3274
-36.0953	-42.7392	47.3665
-36.0905	-46.991	47.4055
-36.08852	-38.0914	47.44458
-36.0835	-46.9436	47.4836
-36.0814	-45.1514	47.5227
-36.079	-39.0604	47.5618
-36.0764	-49.9091	47.60083
-36.072	-40.4829	47.6399
-36.0689	-40.45126	47.679
-36.0664	-48.9163	47.718
-36.0628	-40.9282	47.75708
-36.0588	-44.2543	47.7961
-36.0552	-45.6273	47.8352
-36.0524	-38.7608	47.8743
-36.0491	-44.8094	47.91333
-36.046	-41.51083	47.9524
-36.0434	-38.2932	47.9915
-36.03994	-45.5428	48.0305
-36.0362	-36.7062	48.06958
-36.0318	-43.447	48.1086
-36.0287	-43.48772	48.1477
-36.0262	-37.5051	48.1868
-36.0241	-44.6505	48.22583
-36.0196	-40.9068	48.2649
-36.0175	-41.6608	48.304
-36.0147	-45.4488	48.343
-36.0091	-41.6311	48.38208
-36.0066	-43.0854	48.4211
-36.0033	-44.19648	48.4602
-36.00127	-42.3168	48.4993
-35.9969	-45.4364	48.53833
-35.994	-43.4344	48.5774
-35.9912	-41.83522	48.6165
-35.9873	-46.9639	48.6555
-35.9835	-38.7088	48.69458
-35.9801	-48.2195	48.7336
-35.978	-43.7372	48.7727
-35.9747	-39.3842	48.8118
-35.9707	-47.4379	48.85083
-35.9678	-41.2207	48.8899
-35.9643	-42.5075	48.929
-35.9608	-47.9811	48.968
-35.9577	-39.91008	49.00708
-35.9544	-43.08139	49.0461
-35.95208	-45.6334	49.0852
-35.9484	-39.015	49.1243
-35.945	-45.0754	49.16333
-35.9417	-43.4912	49.2024
-35.9385	-41.7678	49.2415
-35.9353	-45.6241	49.2805
-35.9327	-39.19928	49.31958
-35.9287	-44.75219	49.3586
-35.9254	-40.88353	49.3977
-35.92128	-38.5675	49.4368
-35.9193	-45.061	49.47583
-35.9156	-41.9939	49.5149
-35.9141	-44.4178	49.5247