File: data/processed_data_files/tensile/0.254_solid_dimension_typeiv_4545_r(4).dat
MTS793|BTW|ENU|1|2|.|/|:|1|0|0|A

Data Header:			0.254_solid_dimension_typeiv_4545_r0			Time:	20.0178	s	4/13/2019 8:41:36 PM
Data Acquisition:	Timed
Station Name:	ft40.cfg
Test File Name:	monotonic_0.2540_typeiv_solid_4545_dimension.tst
Displacement	Force	Running Time
mm	N	s
-40.0346	-279.943	0.0227051
-40.0315	-277.352	0.0910645
-40.0256	-276.311	0.159424
-40.02026	-274.213	0.2277832
-40.0143	-272.476	0.296143
-40.00914	-270.1926	0.364502
-40.0034	-263.797	0.432861
-39.9985	-259.701	0.5012207
-39.9921	-259.066	0.56958
-39.9877	-255.14	0.637939
-39.9813	-245.779	0.706299
-39.9747	-243.266	0.7746582
-39.9698	-239.197	0.843018
-39.9636	-235.242	0.911377
-39.9582	-235.259	0.979736
-39.9527	-232.926	1.0481
-39.9463	-229.095	1.11646
-39.9409	-225.015	1.18481
-39.9343	-224.44	1.25317
-39.93	-219.209	1.32153
-39.9236	-208.874	1.38989
-39.9189	-206.418	1.458252
-39.9118	-203.399	1.52661
-39.9064	-198.58	1.59497
-39.9012	-196.562	1.66333
-39.8951	-195.868	1.73169
-39.8899	-190.339	1.80005
-39.8845	-189.1189	1.86841
-39.8769	-189.16	1.93677
-39.8726	-183.41	2.005127
-39.8678	-175.112	2.07349
-39.8615	-171.602	2.14185
-39.8545	-167.1366	2.21021
-39.8501	-161.278	2.27856
-39.8437	-157.254	2.34692
-39.8387	-157.158	2.41528
-39.8335	-153.7802	2.48364
-39.82629	-150.798	2.552002
-39.8221	-150.452	2.62036
-39.816	-147.271	2.68872
-39.8106	-137.521	2.75708
-39.8039	-134.331	2.82544
-39.7986	-130.021	2.8938
-39.7925	-123.884	2.96216
-39.7877	-120.268	3.03052
-39.7817	-115.586	3.098877
-39.77626	-114.974	3.16724
-39.7708	-113.626	3.2356
-39.7643	-112.341	3.30396
-39.75761	-108.8567	3.37231
-39.7527	-100.627	3.44067
-39.7478	-97.2743	3.50903
-39.7419	-91.4021	3.57739
-39.737	-86.0359	3.645752
-39.7305	-82.453	3.71411
-39.7242	-74.5257	3.78247
-39.7186	-73.8525	3.85083
-39.71262	-73.78154	3.91919
-39.708	-72.0758	3.98755
-39.7016	-67.0628	4.05591
-39.6954	-64.1035	4.12427
-39.6913	-60.15556	4.192627
-39.6843	-53.0415	4.26099
-39.6786	-48.1563	4.32935
-39.673	-43.7669	4.39771
-39.6676	-36.9721	4.46606
-39.6623	-33.015	4.53442
-39.6562	-35.01466	4.60278
-39.6513	-31.747	4.67114
-39.6457	-26.1245	4.739502
-39.6383	-24.9866	4.80786
-39.63401	-23.19212	4.87622
-39.6288	-16.301	4.94458
-39.6221	-10.2744	5.01294
-39.6165	-6.8142	5.0813
-39.6107	-0.251694	5.14966
-39.6048	4.36133	5.21802
-39.5987	4.36986	5.286377
-39.593	5.34378	5.35474
-39.589	11.2583	5.4231
-39.5815	12.2849	5.49146
-39.5764	14.3063	5.55981
-39.5705	21.8889	5.62817
-39.5648	26.651	5.69653
-39.5593	31.2289	5.76489
-39.5532	37.2405	5.833252
-39.5476	45.3732	5.90161
-39.5434	43.6167	5.96997
-39.5364	45.1493	6.03833
-39.532	52.0006	6.10669
-39.5251	53.0271	6.17505
-39.5193	54.0852	6.24341
-39.5135	57.9145	6.31177
-39.5074	63.8262	6.380127
-39.5034	68.6173	6.44849
-39.4972	75.8578	6.51685
-39.4912	81.0704	6.58521
-39.4861	83.7318	6.65356
-39.4792	85.0077	6.72192
-39.4747	90.99482	6.79028
-39.4689	93.0868	6.85864
-39.462	93.0946	6.927002
-39.4565	97.0927	6.99536
-39.4512	100.337	7.06372
-39.4458	109.162	7.13208
-39.4394	114.668	7.20044
-39.4339	117.875	7.2688
-39.4289	122.177	7.33716
-39.4221	127.409	7.40552
-39.41618	131.8968	7.473877
-39.4114	131.4	7.54224
-39.4056	133.398	7.6106
-39.40044	135.577	7.67896
-39.3936	138.235	7.74731
-39.3887	144.7	7.81567
-39.3828	150.209	7.88403
-39.3765	154.297	7.95239
-39.3727	158.6779	8.020752
-39.3658	165.061	8.08911
-39.3595	169.837	8.15747
-39.3542	168.546	8.22583
-39.3495	173.6299	8.29419
-39.3431	174.538	8.36255
-39.337	176.077	8.43091
-39.3321	182.018	8.49927
-39.3262	188.365	8.567627
-39.3199	188.792	8.63599
-39.3143	194.435	8.70435
-39.3086	202.872	8.77271
-39.3037	207.625	8.84106
-39.2972	206.476	8.90942
-39.2927	209.81	8.97778
-39.2858	213.44	9.04614
-39.28	215.42	9.114502
-39.2748	218.506	9.18286
-39.2688	224.907	9.25122
-39.2626	226.19	9.31958
-39.2585	228.068	9.38794
-39.2518	239.485	9.4563
-39.2475	246.057	9.52466
-39.2413	244.703	9.59302
-39.2345	248.804	9.661377
-39.2303	251.215	9.72974
-39.2242	253.645	9.7981
-39.2178	255.955	9.86646
-39.2118	259.867	9.93481
-39.2069	262.906	10.0032
-39.2008	265.5	10.0715
-39.1958	275.422	10.1399
-39.19	279.662	10.2083
-39.1836	283.259	10.2766
-39.178	285.899	10.345
-39.1729	288.889	10.41333
-39.1666	291.185	10.4817
-39.1611	293.566	10.55
-39.1562	297.573	10.6184
-39.1497	298.255	10.6868
-39.144	301.985	10.7551
-39.1379	310.132	10.8235
-39.1324	313.213	10.8918
-39.12706	318.028	10.9602
-39.1211	321.741	11.0286
-39.11602	324.061	11.0969
-39.10944	328.519	11.1653
-39.1036	331.692	11.2336
-39.0981	330.778	11.302
-39.0937	332.191	11.3704
-39.0858	336.551	11.4387
-39.0811	344.4075	11.50708
-39.0748	346.855	11.5754
-39.0694	353.96	11.6438
-39.0658	357.419	11.7122
-39.0592	359.126	11.7805
-39.0535	364.607	11.8489
-39.0465	368.279	11.9172
-39.0413	366.864	11.9856
-39.0357	364.848	12.054
-39.0307	370.381	12.1223
-39.0239	376.999	12.1907
-39.0178	380.015	12.259
-39.0132	387.191	12.3274
-39.0084	391.7132	12.3958
-39.001	393.2056	12.4641
-38.9959	399.56	12.5325
-38.9903	400.748	12.60083
-38.9841	399.471	12.6692
-38.9795	399.725	12.7375
-38.9731	406.017	12.8059
-38.9674	409.551	12.8743
-38.9617	411.927	12.9426
-38.9566	418.136	13.011
-38.951	422.488	13.0793
-38.9443	425.445	13.1477
-38.9389	429.617	13.2161
-38.933	436.647	13.2844
-38.9277	435.243	13.3528
-38.9216	432.77	13.4211
-38.9171	437.707	13.4895
-38.9102	441.859	13.5579
-38.9041	441.068	13.6262
-38.8989	447.229	13.69458
-38.8936	452.493	13.7629
-38.8869	456.473	13.8313
-38.8815	462.542	13.8997
-38.876	466.169	13.968
-38.8702	464.682	14.0364
-38.8646	464.955	14.1047
-38.8597	470.257	14.1731
-38.8524	471.49	14.2415
-38.8478	470.257	14.3098
-38.8417	472.9921	14.3782
-38.8365	477.661	14.4465
-38.8311	486.435	14.5149
-38.8248	489.771	14.5833
-38.8187	491.857	14.6516
-38.8129	493.696	14.72
-38.8085	494.321	14.78833
-38.8022	499.263	14.8567
-38.7965	497.105	14.925
-38.7907	499.062	14.9934
-38.7858	502.1463	15.0618
-38.7791	504.945	15.1301
-38.7729	511.455	15.1985
-38.7687	516.104	15.2668
-38.763	518.052	15.3352
-38.7571	517.853	15.4036
-38.751	520.73	15.4719
-38.7449	522.886	15.5403
-38.73938	520.358	15.6086
-38.73365	522.543	15.677
-38.7288	525.14	15.7454
-38.72263	525.8	15.8137
-38.7166	530.983	15.88208
-38.7118	537.139	15.9504
-38.7047	538.858	16.0188
-38.69957	538.4231	16.0872
-38.6941	541.9212	16.1555
-38.6878	545.692	16.2239
-38.6833	542.169	16.2922
-38.6764	544.18	16.3606
-38.6711	544.226	16.429
-38.6654	543.2218	16.4973
-38.66	546.918	16.5657
-38.6552	552.8241	16.634
-38.647	554.305	16.7024
-38.6428	554.2959	16.7708
-38.6372	559.461	16.8391
-38.6312	561.305	16.9075
-38.6256	558.249	16.97583
-38.6199	556.3606	17.0442
-38.6138	559.002	17.1125
-38.6077	556.669	17.1809
-38.6038	557.992	17.2493
-38.5979	561.775	17.3176
-38.5906	564.058	17.386
-38.5847	563.398	17.4543
-38.5799	569.5	17.5227
-38.5751	572.092	17.5911
-38.5688	568.474	17.6594
-38.5638	566.153	17.7278
-38.5569	567.494	17.7961
-38.5517	566.543	17.8645
-38.5463	566.692	17.9329
-38.5407	568.705	18.0012
-38.5341	567.436	18.06958
-38.5296	568.245	18.1379
-38.5232	574.3432	18.2063
-38.5183	576.0191	18.2747
-38.5125	573.348	18.343
-38.5052	573.549	18.4114
-38.4993	571.026	18.4797
-38.4952	570.232	18.5481
-38.4879	571.0318	18.6165
-38.4833	569.828	18.6848
-38.4769	569.2207	18.7532
-38.4724	569.0672	18.8215
-38.4662	572.798	18.8899
-38.4599	575.362	18.9583
-38.4545	573.836	19.0266
-38.4486	575.336	19.095
-38.4445	571.963	19.16333
-38.4373	572.301	19.2317
-38.4324	570.817	19.3
-38.4259	568.297	19.3684
-38.4211	564.651	19.4368
-38.415	569.089	19.5051
-38.4105	572.034	19.5735
-38.4033	571.948	19.6418
-38.39785	573.185	19.7102
-38.3927	573.778	19.7786
-38.3868	569.803	19.8469
-38.38	570.684	19.9153
-38.3756	570.564	19.9836
-38.3737	570.09	20.0129

Data Header:			0.254_solid_dimension_typeiv_4545_r0			Time:	40.0178	s	4/13/2019 8:41:56 PM
Data Acquisition:	Timed
Station Name:	ft40.cfg
Test File Name:	monotonic_0.2540_typeiv_solid_4545_dimension.tst
Displacement	Force	Running Time
mm	N	s
-38.371	571.733	20.0227
-38.3662	572.572	20.0911
-38.36068	571.364	20.1594
-38.3554	569.294	20.2278
-38.3488	566.065	20.2961
-38.3433	564.084	20.3645
-38.3378	567.247	20.4329
-38.3312	563.566	20.5012
-38.3276	562.463	20.56958
-38.3202	565.277	20.6379
-38.3141	568.17	20.7063
-38.3096	568.867	20.7747
-38.3036	569.605	20.843
-38.298	566.219	20.9114
-38.292	562.871	20.9797
-38.28651	561.808	21.0481
-38.2809	561.285	21.1165
-38.276	560.869	21.1848
-38.27018	558.309	21.2532
-38.2638	560.749	21.3215
-38.25774	565.556	21.3899
-38.2514	564.008	21.4583
-38.2471	565.497	21.5266
-38.2419	564.712	21.595
-38.2347	560.648	21.66333
-38.23	561.091	21.7317
-38.2235	559.948	21.8
-38.2178	557.568	21.8684
-38.2132	553.707	21.9368
-38.2064	556.924	22.0051
-38.2006	562.062	22.0735
-38.1949	561.019	22.1418
-38.1888	561.507	22.2102
-38.1838	562.566	22.2786
-38.1785	559.904	22.3469
-38.17157	558.734	22.4153
-38.1659	558.94	22.4836
-38.16198	554.5816	22.552
-38.15501	551.311	22.6204
-38.1497	553.774	22.6887
-38.1441	557.258	22.75708
-38.1386	557.656	22.8254
-38.1328	557.8512	22.8938
-38.1266	561.323	22.9622
-38.1209	558.52	23.0305
-38.1162	558.4762	23.0989
-38.1097	558.499	23.1672
-38.1038	554.541	23.2356
-38.0993	550.341	23.304
-38.0935	551.895	23.3723
-38.0877	554.251	23.4407
-38.0815	553.0744	23.509
-38.0747	555.308	23.5774
-38.0688	557.5213	23.6458
-38.0648	559.191	23.7141
-38.0584	558.872	23.7825
-38.0531	556.947	23.85083
-38.0481	553.437	23.9192
-38.0411	549.263	23.9875
-38.0358	550.282	24.0559
-38.0295	551.247	24.1243
-38.0247	552.2113	24.1926
-38.0192	552.357	24.261
-38.0131	554.248	24.3293
-38.0072	555.984	24.3977
-38.0021	558.287	24.4661
-37.996	555.243	24.5344
-37.9893	552.2774	24.6028
-37.9851	551.65	24.6711
-37.9788	550.017	24.7395
-37.9724	548.976	24.8079
-37.9673	547.864	24.8762
-37.9616	549.557	24.94458
-37.9568	550.001	25.0129
-37.95079	554.451	25.0813
-37.9443	556.8	25.1497
-37.9388	554.981	25.218
-37.9334	550.4599	25.2864
-37.928	549.762	25.3547
-37.9219	551.88	25.4231
-37.916	546.9444	25.4915
-37.9096	548.003	25.5598
-37.90593	547.119	25.6282
-37.8994	548.059	25.6965
-37.8935	550.928	25.7649
-37.8868	554.758	25.8333
-37.8815	554.6134	25.9016
-37.8762	551.691	25.97
-37.8714	550.152	26.03833
-37.8646	551.866	26.1067
-37.8586	548.808	26.175
-37.8544	545.397	26.2434
-37.8472	545.869	26.3118
-37.8428	544.201	26.3801
-37.8357	548.928	26.4485
-37.8312	552.319	26.5168
-37.8238	553.031	26.5852
-37.8192	550.258	26.6536
-37.8137	551.083	26.7219
-37.8075	551.603	26.7903
-37.8018	546.6864	26.8586
-37.7969	545.912	26.927
-37.7897	546.042	26.9954
-37.7856	544.869	27.0637
-37.7784	546.8158	27.13208
-37.7731	549.1983	27.2004
-37.7682	550.5921	27.2688
-37.76297	548.227	27.3372
-37.7564	550.353	27.4055
-37.7512	552.797	27.4739
-37.74501	547.727	27.5422
-37.74	545.1239	27.6106
-37.7349	544.936	27.679
-37.7272	544.1181	27.7473
-37.72168	545.427	27.8157
-37.7163	546.883	27.884
-37.71	547.66	27.9524
-37.7054	547.8045	28.0208
-37.6999	549.784	28.0891
-37.6937	551.929	28.1575
-37.6883	547.603	28.22583
-37.6826	547.341	28.2942
-37.6771	543.4845	28.3625
-37.671	544.366	28.4309
-37.6654	544.43	28.4993
-37.6603	545.237	28.5676
-37.6527	544.017	28.636
-37.6484	546.795	28.7043
-37.6426	549.959	28.7727
-37.6368	549.603	28.8411
-37.63232	549.564	28.9094
-37.625	547.516	28.9778
-37.619	542.992	29.0461
-37.6135	543.852	29.1145
-37.6077	545.371	29.1829
-37.6035	543.5899	29.2512
-37.5967	541.268	29.31958
-37.5913	544.561	29.3879
-37.5855	549.653	29.4563
-37.58	549.704	29.5247
-37.5748	547.46	29.593
-37.5685	549.202	29.6614
-37.5627	544.462	29.7297
-37.5577	543.075	29.7981
-37.5515	544.453	29.8665
-37.5464	543.817	29.9348
-37.5406	538.68	30.0032
-37.5347	542.768	30.0715
-37.5303	548.29	30.1399
-37.523	547.022	30.2083
-37.5178	546.687	30.2766
-37.5118	547.8822	30.345
-37.5066	546.347	30.41333
-37.5007	544.301	30.4817
-37.4939	544.771	30.55
-37.4879	540.652	30.6184
-37.4828	538.691	30.6868
-37.477	541.278	30.7551
-37.4723	544.217	30.8235
-37.4659	545.258	30.8918
-37.4613	545.485	30.9602
-37.4548	547.559	31.0286
-37.4486	546.101	31.0969
-37.4442	545.287	31.1653
-37.4373	544.924	31.2336
-37.432	540.877	31.302
-37.4256	538.367	31.3704
-37.42104	539.617	31.4387
-37.415	542.475	31.50708
-37.4096	543.354	31.5754
-37.4032	545.096	31.6438
-37.39666	546.944	31.7122
-37.3931	548.099	31.7805
-37.3857	545.629	31.8489
-37.3807	543.639	31.9172
-37.3759	540.07	31.9856
-37.3694	537.792	32.054
-37.3639	538.8714	32.1223
-37.3579	541.5802	32.1907
-37.3532	541.062	32.259
-37.3459	545.1225	32.3274
-37.3401	544.605	32.3958
-37.3358	546.748	32.4641
-37.3294	546.863	32.5325
-37.3239	545.482	32.60083
-37.3187	540.725	32.6692
-37.3125	539.0152	32.7375
-37.3063	540.686	32.8059
-37.301	536.859	32.8743
-37.29546	538.474	32.9426
-37.28896	542.971	33.011
-37.2833	542.8056	33.0793
-37.2778	545.121	33.1477
-37.2724	546.95	33.2161
-37.2664	545.193	33.2844
-37.26067	540.062	33.3528
-37.2558	540.485	33.4211
-37.2495	541.572	33.4895
-37.2444	536.608	33.5579
-37.2388	537.9328	33.6262
-37.2326	541.4494	33.69458
-37.2268	538.653	33.7629
-37.2217	543.482	33.8313
-37.21582	546.7356	33.8997
-37.2099	545.662	33.968
-37.2031	540.938	34.0364
-37.1977	539.702	34.1047
-37.19173	542.179	34.1731
-37.1875	537.692	34.2415
-37.1817	536.423	34.3098
-37.17646	539.521	34.3782
-37.1701	539.6344	34.4465
-37.1636	541.849	34.5149
-37.1583	545.841	34.5833
-37.1532	546.196	34.6516
-37.1469	542.175	34.72
-37.1412	541.353	34.78833
-37.1359	543.409	34.8567
-37.1297	537.4455	34.925
-37.1244	536.107	34.9934
-37.1188	537.403	35.0618
-37.112	538.179	35.1301
-37.10659	538.965	35.1985
-37.1012	543.9505	35.2668
-37.096	543.786	35.3352
-37.0899	543.4024	35.4036
-37.0838	542.155	35.4719
-37.0783	541.731	35.5403
-37.0728	537.805	35.6086
-37.0678	537.376	35.677
-37.06131	536.052	35.7454
-37.0552	535.697	35.8137
-37.0501	539.837	35.88208
-37.0447	541.967	35.9504
-37.0378	542.472	36.0188
-37.0333	542.084	36.0872
-37.0269	543.0603	36.1555
-37.0216	543.391	36.2239
-37.0153	539.2	36.2922
-37.0092	538.482	36.3606
-37.0043	535.727	36.429
-36.9991	534.214	36.4973
-36.9943	538.482	36.5657
-36.9875	540.702	36.634
-36.9814	539.13	36.7024
-36.9761	539.113	36.7708
-36.9703	543.799	36.8391
-36.964	542.329	36.9075
-36.9593	539.893	36.97583
-36.9533	540.574	37.0442
-36.947	538.438	37.1125
-36.9427	534.727	37.1809
-36.937	537.541	37.2493
-36.9311	539.046	37.3176
-36.9246	536.945	37.386
-36.9197	539.32	37.4543
-36.91412	544.859	37.5227
-36.9069	542.187	37.5911
-36.9022	539.665	37.6594
-36.8971	540.815	37.7278
-36.89106	538.097	37.7961
-36.8847	536.873	37.8645
-36.8785	535.171	37.9329
-36.8731	538.417	38.0012
-36.8687	535.74	38.06958
-36.8628	537.872	38.1379
-36.8563	543.021	38.2063
-36.8518	543.487	38.2747
-36.8453	541.284	38.343
-36.8383	539.477	38.4114
-36.8335	538.83	38.4797
-36.8275	538.212	38.5481
-36.8221	535.274	38.6165
-36.8167	536.678	38.6848
-36.8103	533.369	38.7532
-36.806	534.558	38.8215
-36.79908	541.287	38.8899
-36.7938	541.073	38.9583
-36.7881	541.453	39.0266
-36.7825	540.51	39.095
-36.7757	539.6236	39.16333
-36.7717	538.499	39.2317
-36.7649	535.789	39.3
-36.76	536.271	39.3684
-36.7545	533.134	39.4368
-36.7489	534.054	39.5051
-36.7434	539.641	39.5735
-36.7363	539.309	39.6418
-36.73103	541.266	39.7102
-36.7251	541.171	39.7786
-36.7195	537.255	39.8469
-36.7137	540.7016	39.9153
-36.7079	539.423	39.9836
-36.7062	539.391	40.0129

Data Header:			0.254_solid_dimension_typeiv_4545_r0			Time:	54.116	s	4/13/2019 8:42:10 PM
Data Acquisition:	Timed
Station Name:	ft40.cfg
Test File Name:	monotonic_0.2540_typeiv_solid_4545_dimension.tst
Displacement	Force	Running Time
mm	N	s
-36.7049	542.619	40.0227
-36.70129	535.801	40.0715
-36.6968	532.094	40.1204
-36.6925	537.906	40.1692
-36.6884	542.886	40.218
-36.6852	541.275	40.2668
-36.6817	535.65	40.3157
-36.6764	534.816	40.3645
-36.6729	539.333	40.41333
-36.6681	541.555	40.4622
-36.6637	537.531	40.511
-36.6599	532.392	40.5598
-36.6565	535.368	40.6086
-36.6524	539.892	40.6575
-36.6478	540.859	40.7063
-36.6449	534.166	40.7551
-36.6402	531.113	40.804
-36.6364	537.723	40.8528
-36.6325	541.697	40.9016
-36.6274	540.555	40.9504
-36.624	535.995	40.9993
-36.6192	537.387	41.0481
-36.6157	539.836	41.0969
-36.6133	540.79	41.1458
-36.60796	535.445	41.19458
-36.6039	532.765	41.2434
-36.5996	535.75	41.2922
-36.5965	541.131	41.3411
-36.5923	538.665	41.3899
-36.587	531.568	41.4387
-36.5827	531.415	41.4875
-36.5784	538.509	41.5364
-36.5757	540.111	41.5852
-36.5709	535.883	41.634
-36.56625	534.748	41.6829
-36.5628	538.663	41.7317
-36.5595	539.673	41.7805
-36.5554	539.437	41.8293
-36.5499	535.002	41.8782
-36.5463	533.848	41.927
-36.5426	536.442	41.97583
-36.538	541.391	42.0247
-36.5348	538.738	42.0735
-36.5296	531.248	42.1223
-36.5259	532.74	42.1711
-36.5221	537.541	42.22
-36.5184	537.249	42.2688
-36.5138	535.677	42.3176
-36.5112	534.595	42.3665
-36.5054	539.933	42.4153
-36.5014	541.068	42.4641
-36.4975	537.036	42.5129
-36.4931	534.512	42.5618
-36.4896	534.852	42.6106
-36.48616	537.127	42.6594
-36.4812	540.283	42.7083
-36.4768	535.258	42.75708
-36.4724	533.592	42.8059
-36.4693	534.433	42.8547
-36.4646	536.809	42.9036
-36.4607	535.601	42.9524
-36.4565	534.107	43.0012
-36.4534	533.857	43.05
-36.4493	538.264	43.0989
-36.4445	540.016	43.1477
-36.4407	533.057	43.1965
-36.4361	531.576	43.2454
-36.4329	535.863	43.2942
-36.4293	538.275	43.343
-36.42382	537.517	43.3918
-36.4197	536.076	43.4407
-36.4168	534.805	43.4895
-36.412	535.636	43.53833
-36.4082	537.197	43.5872
-36.404	534.394	43.636
-36.3999	532.248	43.6848
-36.3961	535.762	43.7336
-36.3927	539.579	43.7825
-36.3869	536.663	43.8313
-36.3837	531.254	43.8801
-36.3793	532.086	43.929
-36.3759	536.632	43.9778
-36.3717	538.04	44.0266
-36.3679	535.857	44.0754
-36.3628	533.444	44.1243
-36.3599	534.587	44.1731
-36.3556	538.888	44.2219
-36.3513	536.481	44.2708
-36.3467	532.152	44.31958
-36.343	531.701	44.3684
-36.3393	536.9718	44.4172
-36.3355	537.954	44.4661
-36.3305	535.612	44.5149
-36.3263	530.0127	44.5637
-36.322	533.572	44.6125
-36.318	538.6673	44.6614
-36.3148	538.112	44.7102
-36.3104	532.978	44.759
-36.3061	531.929	44.8079
-36.3023	537.242	44.8567
-36.2983	540.467	44.9055
-36.2943	535.346	44.9543
-36.2907	530.406	45.0032
-36.2858	532.828	45.052
-36.2817	538.602	45.10083
-36.2779	539.949	45.1497
-36.2739	533.569	45.1985
-36.2699	528.743	45.2473
-36.2659	532.48	45.2961
-36.2609	536.746	45.345
-36.257	534.9668	45.3938
-36.25296	531.035	45.4426
-36.2487	530.174	45.4915
-36.2451	536.896	45.5403
-36.2416	538.796	45.5891
-36.2376	535.245	45.6379
-36.234	528.973	45.6868
-36.2289	531.825	45.7356
-36.2257	539.006	45.7844
-36.2221	539.359	45.8333
-36.2164	535.729	45.88208
-36.2126	530.351	45.9309
-36.2084	533.703	45.9797
-36.2056	536.682	46.0286
-36.20084	534.099	46.0774
-36.1957	529.3855	46.1262
-36.1927	530.289	46.175
-36.188	536.016	46.2239
-36.1847	538.508	46.2727
-36.1804	531.343	46.3215
-36.1769	528.871	46.3704
-36.1723	533.044	46.4192
-36.1687	539.2749	46.468
-36.1641	537.92	46.5168
-36.1608	531.838	46.5657
-36.1556	531.9339	46.6145
-36.1513	535.139	46.66333
-36.1477	538.349	46.7122
-36.1431	533.287	46.761
-36.1396	529.217	46.8098
-36.1351	530.793	46.8586
-36.131	536.796	46.9075
-36.1268	537.104	46.9563
-36.1226	530.641	47.0051
-36.1203	528.3504	47.054
-36.1154	532.8028	47.1028
-36.11	538.454	47.1516
-36.1068	536.805	47.2004
-36.1017	530.965	47.2493
-36.0992	533.068	47.2981
-36.0943	535.5177	47.3469
-36.0907	535.383	47.3958
-36.0851	531.4115	47.44458
-36.0827	526.954	47.4934
-36.0787	531.565	47.5422
-36.0745	535.911	47.5911
-36.07	534.814	47.6399
-36.0671	529.145	47.6887
-36.0615	528.165	47.7375
-36.05846	532.706	47.7864
-36.0539	534.471	47.8352
-36.0499	533.152	47.884
-36.0465	530.32	47.9329
-36.0421	535.632	47.9817
-36.0376	536.567	48.0305
-36.0339	535.704	48.0793
-36.03	530.98	48.1282
-36.0248	529.994	48.177
-36.0214	532.314	48.22583
-36.0178	535.7782	48.2747
-36.01334	533.475	48.3235
-36.0089	529.425	48.3723
-36.0052	529.0592	48.4211
-36.002	531.481	48.47
-35.9974	533.221	48.5188
-35.9928	530.072	48.5676
-35.988	530.915	48.6165
-35.9846	535.081	48.6653
-35.981	537.3598	48.7141
-35.9766	533.417	48.7629
-35.9729	529.276	48.8118
-35.9684	530.998	48.8606
-35.9652	535.228	48.9094
-35.9603	532.791	48.9583
-35.957	530.554	49.00708
-35.9529	529.031	49.0559
-35.9481	530.407	49.1047
-35.9434	531.294	49.1536
-35.9413	529.774	49.2024
-35.9365	530.106	49.2512
-35.9319	530.518	49.3
-35.9274	534.656	49.3489
-35.9221	534.4892	49.3977
-35.9191	529.837	49.4465
-35.9164	527.401	49.4954
-35.9109	530.435	49.5442
-35.9069	535.459	49.593
-35.9035	532.22	49.6418
-35.9001	528.8385	49.6907
-35.8953	530.53	49.7395
-35.8911	533.12	49.78833
-35.8878	532.829	49.8372
-35.8848	527.21	49.886
-35.8791	526.569	49.9348
-35.8756	531.6861	49.9836
-35.8716	534.518	50.0325
-35.8666	533.148	50.0813
-35.8631	528.375	50.1301
-35.859	527.9	50.179
-35.8538	532.292	50.2278
-35.8498	535.1911	50.2766
-35.8464	531.59	50.3254
-35.84346	526.327	50.3743
-35.8385	530.475	50.4231
-35.8348	535.428	50.4719
-35.83054	530.635	50.5208
-35.8267	525.474	50.56958
-35.822	526.064	50.6184
-35.8174	532.867	50.6672
-35.813	535.714	50.7161
-35.8093	530.982	50.7649
-35.8051	526.0329	50.8137
-35.8013	526.272	50.8625
-35.79707	531.706	50.9114
-35.79372	534.4339	50.9602
-35.79	529.689	51.009
-35.7855	524.6217	51.0579
-35.7824	530.784	51.1067
-35.7782	535.164	51.1555
-35.7729	530.523	51.2043
-35.7674	524.061	51.2532
-35.7667	523.807	51.302
-35.7611	530.325	51.35083
-35.7558	532.242	51.3997
-35.7531	528.207	51.4485
-35.7487	524.877	51.4973
-35.7445	524.7782	51.5461
-35.7389	530.461	51.595
-35.7365	530.58	51.6438
-35.7321	524.212	51.6926
-35.7277	523.8501	51.7415
-35.725	528.241	51.7903
-35.7205	532.431	51.8391
-35.715	527.2984	51.8879
-35.711	520.991	51.9368
-35.7087	524.084	51.9856
-35.70433	528.607	52.0344
-35.6991	530.552	52.0833
-35.6962	524.392	52.13208
-35.691	522.227	52.1809
-35.6874	523.19	52.2297
-35.6841	524.604	52.2786
-35.6783	525.031	52.3274
-35.6759	519.301	52.3762
-35.6718	519.953	52.425
-35.6668	523.924	52.4739
-35.6633	527.335	52.5227
-35.6593	521.995	52.5715
-35.6555	516.469	52.6204
-35.6513	517.078	52.6692
-35.64756	522.199	52.718
-35.6424	520.841	52.7668
-35.6398	515.902	52.8157
-35.6334	515.754	52.8645
-35.6314	516.724	52.91333
-35.627	514.25	52.9622
-35.6228	511.293	53.011
-35.6191	503.5311	53.0598
-35.6141	501.429	53.1086
-35.6077	-53.1029	53.1575
-35.6055	-38.7236	53.2063
-35.6013	-42.7163	53.2551
-35.5972	-46.4044	53.304
-35.5932	-43.80431	53.3528
-35.58984	-40.7111	53.4016
-35.58606	-43.1589	53.4504
-35.5807	-46.1902	53.4993
-35.5767	-42.8937	53.5481
-35.5723	-39.6376	53.5969
-35.5695	-43.3691	53.6458
-35.5662	-45.6207	53.69458
-35.5614	-49.0451	53.7434
-35.5574	-43.2511	53.7922
-35.5532	-42.3876	53.8411
-35.5492	-42.9945	53.8899
-35.5444	-43.5639	53.9387
-35.5408	-46.8279	53.9875
-35.5367	-42.8016	54.0364
-35.53339	-41.3489	54.0852
-35.5309	-41.4951	54.1047