File: data/processed_data_files/tensile/0.254_solid_uprint_typei_090_r(4).dat
MTS793|BTW|ENU|1|2|.|/|:|1|0|0|A

Data Header:			0.254_solid_uprint_typei_090_r0			Time:	20.0205	s	4/15/2019 2:56:36 PM
Data Acquisition:	Timed
Station Name:	ft40.cfg
Test File Name:	monotonic_0.2540_typei_solid_090_uprint.tst
Displacement	Force	Running Time
mm	N	s
9.982317	-108.078	0.0256348
9.98246	-106.122	0.0939941
9.98793	-104.614	0.162354
9.99423	-102.354	0.230713
9.99885	-102.516	0.299072
10.0048	-100.62	0.367432
10.0115	-96.508	0.435791
10.0174	-90.7564	0.50415
10.0226	-86.671	0.57251
10.0288	-79.38	0.640869
10.03395	-72.3416	0.709229
10.0395	-67.6582	0.777588
10.0453	-66.2054	0.845947
10.0506	-64.43428	0.914307
10.05648	-62.9751	0.982666
10.0617	-62.9694	1.05103
10.0688	-57.6341	1.11938
10.0738	-51.8397	1.18774
10.0791	-51.8145	1.2561
10.0857	-45.2054	1.32446
10.0912	-35.3322	1.39282
10.09683	-31.3161	1.46118
10.10331	-28.7744	1.529541
10.1088	-24.0364	1.5979
10.11379	-24.1028	1.66626
10.1195	-23.6364	1.73462
10.1253	-20.5555	1.80298
10.1309	-18.37228	1.87134
10.1357	-15.8519	1.9397
10.1427	-8.4148	2.00806
10.1481	3.37425	2.076416
10.1538	6.358849	2.14478
10.1589	9.81137	2.21313
10.1645	14.9736	2.28149
10.17021	16.6419	2.34985
10.176	16.28092	2.41821
10.1816	19.9636	2.48657
10.1878	22.1456	2.55493
10.193	22.6959	2.623291
10.1999	26.4533	2.69165
10.2047	38.90834	2.76001
10.2109	43.0103	2.82837
10.2158	48.0579	2.89673
10.2218	54.2541	2.96509
10.22732	56.5731	3.03345
10.2335	57.13578	3.10181
10.2386	59.7445	3.170166
10.24426	61.12484	3.23853
10.25085	62.514	3.30688
10.2565	64.5275	3.37524
10.2617	75.5122	3.4436
10.268	81.9649	3.51196
10.2732	86.6503	3.58032
10.2791	92.1077	3.64868
10.2832	97.5434	3.717041
10.2904	100.248	3.7854
10.29511	100.608	3.85376
10.3015	101.567	3.92212
10.3073	100.761	3.99048
10.3126	103.222	4.05884
10.3186	112.319	4.1272
10.324	117.933	4.19556
10.3296	123.857	4.263916
10.3357	130.906	4.33228
10.3412	135.074	4.40063
10.3465	139.674	4.46899
10.35303	142.316	4.53735
10.35852	142.08	4.60571
10.364	140.134	4.67407
10.37018	143.785	4.74243
10.3756	149.214	4.810791
10.38223	154.081	4.87915
10.3872	160.561	4.94751
10.393	169.334	5.01587
10.3976	174.11	5.08423
10.4047	178.994	5.15259
10.4092	183.361	5.22095
10.4156	183.077	5.28931
10.4215	180.407	5.357666
10.4267	183.1427	5.42603
10.4318	188.177	5.49438
10.438	191.543	5.56274
10.444	198.749	5.6311
10.4494	207.494	5.69946
10.4545	211.737	5.76782
10.4607	219.049	5.83618
10.4668	223.595	5.904541
10.4724	224.598	5.9729
10.4792	221.857	6.04126
10.4842	222.827	6.10962
10.4895	229.755	6.17798
10.4952	229.479	6.24634
10.50042	234.1	6.3147
10.5066	242.2829	6.38306
10.5117	249.1109	6.451416
10.51844	256.898	6.51978
10.5235	263.138	6.58813
10.5287	266.9566	6.65649
10.5354	261.569	6.72485
10.5403	264.025	6.79321
10.5455	267.0556	6.86157
10.552	268.863	6.92993
10.5583	271.43	6.998291
10.5631	278.623	7.06665
10.5701	285.9007	7.13501
10.5746	294.385	7.20337
10.5802	298.6738	7.27173
10.5866	302.074	7.34009
10.5919	302.823	7.40845
10.5968	305.261	7.47681
10.6024	307.645	7.545166
10.6075	308.116	7.61353
10.6139	309.856	7.68188
10.6195	314.202	7.75024
10.6258	320.861	7.8186
10.63133	328.789	7.88696
10.6366	335.919	7.95532
10.6438	339.919	8.02368
10.6484	340.904	8.092041
10.6543	343.649	8.1604
10.6606	348.077	8.22876
10.6659	346.264	8.29712
10.6712	348.059	8.36548
10.676	351.511	8.43384
10.6816	355.3031	8.5022
10.6875	363.229	8.57056
10.6935	372.09	8.638916
10.6991	377.058	8.70728
10.7062	380.522	8.77563
10.7114	384.347	8.84399
10.7157	388.298	8.91235
10.7224	384.916	8.98071
10.7282	387.962	9.04907
10.7345	389.358	9.11743
10.7414	389.525	9.185791
10.745	399.135	9.25415
10.7515	407.452	9.32251
10.7569	411.9834	9.39087
10.7631	417.388	9.45923
10.7678	424.108	9.52759
10.77359	427.242	9.59595
10.77984	425.241	9.66431
10.785	425.461	9.732666
10.791	428.074	9.80103
10.7966	427.233	9.86938
10.80252	434.41	9.93774
10.8079	443.847	10.0061
10.8143	448.538	10.0745
10.8199	450.912	10.1428
10.8254	460.2164	10.2112
10.8314	466.172	10.2795
10.836	463.235	10.3479
10.8421	465.638	10.41626
10.8483	466.732	10.4846
10.8537	467.166	10.553
10.8599	469.956	10.6213
10.8644	477.98	10.6897
10.8708	483.37	10.7581
10.8765	485.826	10.8264
10.8823	494.072	10.8948
10.8888	503.678	10.9631
10.8938	504.534	11.0315
10.8989	503.471	11.0999
10.9044	505.673	11.1682
10.9105	505.604	11.2366
10.917	506.745	11.3049
10.9212	511.177	11.3733
10.9279	516.862	11.44165
10.9331	520.837	11.51001
10.9379	530.036	11.5784
10.9447	536.651	11.6467
10.9503	540.811	11.7151
10.9558	542.212	11.7834
10.9623	543.563	11.8518
10.96777	542.604	11.9202
10.9723	543.18	11.9885
10.9784	545.913	12.0569
10.9843	547.555	12.1252
10.9903	554.1618	12.1936
10.9966	561.725	12.262
11.0014	570.357	12.3303
11.0073	574.5166	12.3987
11.0135	579.388	12.467
11.0178	580.519	12.5354
11.0244	578.452	12.60376
11.0305	581.798	12.6721
11.03566	583.246	12.7405
11.0419	581.704	12.8088
11.0475	586.87	12.8772
11.0528	595.961	12.9456
11.05888	602.066	13.0139
11.0639	607.499	13.0823
11.0706	615.33	13.1506
11.0762	617.838	13.219
11.08059	616.097	13.2874
11.0867	617.534	13.3557
11.0922	619.6322	13.4241
11.0981	616.318	13.4924
11.1046	618.605	13.5608
11.1101	628.112	13.62915
11.1152	635.132	13.69751
11.1212	639.3927	13.7659
11.1278	646.236	13.8342
11.1317	652.004	13.9026
11.1389	652.626	13.9709
11.1442	655.33	14.0393
11.1506	656.1394	14.1077
11.1559	652.93	14.176
11.1608	652.747	14.2444
11.1674	659.8327	14.3127
11.1728	667.771	14.3811
11.1774	669.671	14.4495
11.1842	678.362	14.5178
11.1904	685.83	14.5862
11.19543	686.454	14.6545
11.1997	690.01	14.7229
11.2063	690.575	14.79126
11.2124	687.12	14.8596
11.2179	684.824	14.928
11.2239	690.171	14.9963
11.2311	697.791	15.0647
11.2352	702.502	15.1331
11.2413	709.473	15.2014
11.2466	716.559	15.2698
11.2515	721.293	15.3381
11.2581	724.057	15.4065
11.2643	725.147	15.4749
11.26896	722.039	15.5432
11.274	720.821	15.6116
11.2804	724.199	15.6799
11.2865	730.205	15.7483
11.2919	730.253	15.81665
11.2988	738.007	15.88501
11.3045	745.403	15.9534
11.3093	752.77	16.0217
11.3149	757.264	16.0901
11.3205	759.963	16.1584
11.3265	755.866	16.2268
11.331	754.5224	16.2952
11.3374	757.049	16.3635
11.3433	758.37	16.4319
11.3489	761.829	16.5002
11.3558	768.578	16.5686
11.3611	774.921	16.637
11.3664	780.958	16.7053
11.371	788.825	16.7737
11.377	790.707	16.842
11.3841	787.875	16.9104
11.38859	786.364	16.97876
11.3958	790.581	17.0471
11.39919	789.661	17.1155
11.4057	791.447	17.1838
11.4121	796.6236	17.2522
11.4168	802.572	17.3206
11.4224	807.802	17.3889
11.42848	817.033	17.4573
11.4343	821.95	17.5256
11.43996	819.221	17.594
11.4459	820.502	17.6624
11.451	821.869	17.7307
11.4564	820.911	17.7991
11.4639	819.039	17.8674
11.4685	825.575	17.9358
11.4745	829.647	18.00415
11.4802	836.237	18.07251
11.4857	844.502	18.1409
11.4911	849.778	18.2092
11.4965	849.997	18.2776
11.50287	846.2868	18.3459
11.509	850.99	18.4143
11.5145	848.505	18.4827
11.5202	845.09	18.551
11.5258	849.547	18.6194
11.5322	852.744	18.6877
11.5374	857.763	18.7561
11.5423	863.631	18.8245
11.5487	871.141	18.8928
11.5536	872.8515	18.9612
11.5597	872.5459	19.0295
11.5656	877.117	19.0979
11.5712	877.774	19.16626
11.5772	873.377	19.2346
11.5828	875.719	19.303
11.5892	878.391	19.3713
11.5955	881.883	19.4397
11.6002	887.059	19.5081
11.6049	892.313	19.5764
11.6115	896.016	19.6448
11.6172	899.366	19.7131
11.6229	904.543	19.7815
11.6274	902.865	19.8499
11.6341	900.605	19.9182
11.6403	900.584	19.9866
11.6416	910.575	20.0159

Data Header:			0.254_solid_uprint_typei_090_r0			Time:	31.4265	s	4/15/2019 2:56:47 PM
Data Acquisition:	Timed
Station Name:	ft40.cfg
Test File Name:	monotonic_0.2540_typei_solid_090_uprint.tst
Displacement	Force	Running Time
mm	N	s
11.6435	913.791	20.0256
11.6457	903.595	20.0647
11.6485	909.508	20.10376
11.6529	914.782	20.1428
11.6559	905.531	20.1819
11.6589	918.78	20.2209
11.6624	912.395	20.26001
11.6659	912.176	20.2991
11.6684	920.898	20.3381
11.672	912.724	20.3772
11.6755	920.664	20.41626
11.67879	921.404	20.4553
11.6829	914.576	20.4944
11.6846	925.966	20.5334
11.6894	921.274	20.57251
11.6926	917.956	20.6116
11.6954	930.145	20.6506
11.6986	921.951	20.6897
11.7013	926.099	20.72876
11.70584	931.172	20.7678
11.7085	923.5354	20.8069
11.7119	931.194	20.8459
11.7156	929.577	20.88501
11.7177	930.709	20.9241
11.7216	936.466	20.9631
11.7244	931.7276	21.0022
11.7289	937.033	21.04126
11.7309	939.798	21.0803
11.7333	931.445	21.1194
11.7372	944.945	21.1584
11.7409	939.163	21.19751
11.7449	936.696	21.2366
11.7474	950.9679	21.2756
11.7513	938.095	21.3147
11.7536	946.214	21.35376
11.7564	951.185	21.3928
11.7606	942.461	21.4319
11.7625	951.351	21.4709
11.7669	948.526	21.51001
11.7704	947.077	21.5491
11.7727	956.792	21.5881
11.7756	948.449	21.6272
11.7797	952.087	21.66626
11.7828	956.104	21.7053
11.78678	946.508	21.7444
11.7901	960.478	21.7834
11.7932	953.08	21.82251
11.7962	952.038	21.8616
11.7998	962.806	21.9006
11.8032	953.4754	21.9397
11.8056	957.286	21.97876
11.8092	961.498	22.0178
11.8125	953.794	22.0569
11.81602	960.966	22.0959
11.8187	960.271	22.13501
11.82222	956.714	22.1741
11.8257	965.278	22.2131
11.8278	958.559	22.2522
11.8311	965.051	22.29126
11.8356	965.824	22.3303
11.8373	959.488	22.3694
11.8418	970.747	22.4084
11.8445	964.285	22.44751
11.84827	963.77	22.4866
11.8508	974.193	22.5256
11.8546	963.387	22.5647
11.8588	969.19	22.60376
11.8615	974.335	22.6428
11.864	965.642	22.6819
11.8681	974.037	22.7209
11.8716	972.994	22.76001
11.8743	969.846	22.7991
11.8775	979.386	22.8381
11.8806	969.491	22.8772
11.8835	976.1156	22.91626
11.8869	977.073	22.9553
11.8901	969.713	22.9944
11.8937	979.019	23.0334
11.897	974.428	23.07251
11.9004	972.166	23.1116
11.90353	980.66	23.1506
11.9055	970.965	23.1897
11.9106	975.495	23.22876
11.9128	981.986	23.2678
11.9156	969.8703	23.3069
11.92	979.548	23.3459
11.9234	975.021	23.38501
11.9261	973.98	23.4241
11.9298	982.379	23.4631
11.932	974.038	23.5022
11.9358	980.763	23.54126
11.9394	979.624	23.5803
11.9428	973.4245	23.6194
11.946	983.896	23.6584
11.94938	979.271	23.69751
11.9522	975.3114	23.7366
11.9548	986.868	23.7756
11.9583	974.374	23.8147
11.9626	981.078	23.85376
11.965	986.815	23.8928
11.9689	974.075	23.9319
11.9713	986.809	23.9709
11.9755	981.939	24.01001
11.97771	979.794	24.0491
11.98128	987.044	24.0881
11.9855	980.33	24.1272
11.9878	983.15	24.16626
11.9912	986.465	24.2053
11.9948	977.626	24.2444
11.99701	987.801	24.2834
12.0016	983.376	24.32251
12.0045	978.25	24.3616
12.00775	990.112	24.4006
12.0107	977.898	24.4397
12.0136	982.949	24.47876
12.018	986.549	24.5178
12.0218	975.012	24.5569
12.0232	985.876	24.5959
12.0274	980.354	24.63501
12.0302	978.268	24.6741
12.03359	984.978	24.7131
12.0364	977.126	24.7522
12.0405	980.203	24.79126
12.0435	984.105	24.8303
12.0463	973.665	24.8694
12.0493	987.88	24.9084
12.0532	979.375	24.94751
12.0567	977.069	24.9866
12.0596	988.242	25.0256
12.0632	974.257	25.0647
12.0672	981.022	25.10376
12.0688	985.4389	25.1428
12.0725	974.682	25.1819
12.0752	984.373	25.2209
12.0778	982.674	25.26001
12.0832	976.043	25.2991
12.0854	986.373	25.3381
12.0893	976.535	25.3772
12.0922	981.138	25.41626
12.096	984.416	25.4553
12.09819	975.935	25.4944
12.1019	986.74	25.5334
12.1057	980.0249	25.57251
12.1088	977.202	25.6116
12.1116	985.518	25.6506
12.1164	974.468	25.6897
12.1184	981.063	25.72876
12.1232	982.97	25.7678
12.1244	972.203	25.8069
12.128	980.733	25.8459
12.1313	978.2193	25.88501
12.1343	973.2	25.9241
12.13752	981.998	25.9631
12.1421	972.175	26.0022
12.1449	977.047	26.04126
12.1481	978.592	26.0803
12.1508	969.297	26.1194
12.1535	982.5166	26.1584
12.15771	972.517	26.19751
12.1602	973.3623	26.2366
12.1641	981.9856	26.2756
12.1681	970.594	26.3147
12.1711	974.699	26.35376
12.1735	979.876	26.3928
12.1768	967.652	26.4319
12.1803	980.843	26.4709
12.184	975.767	26.51001
12.1874	969.256	26.5491
12.1901	981.25	26.5881
12.1932	971.066	26.6272
12.1959	975.862	26.66626
12.1997	976.9317	26.7053
12.203	971.685	26.7444
12.2057	979.43	26.7834
12.2108	973.291	26.82251
12.21292	970.137	26.8616
12.215	977.645	26.9006
12.218	968.247	26.9397
12.223	973.011	26.97876
12.2259	977.533	27.0178
12.22878	964.835	27.0569
12.2323	975.108	27.0959
12.2348	969.763	27.13501
12.23864	965.956	27.1741
12.2412	974.766	27.2131
12.2452	964.056	27.2522
12.2499	969.309	27.29126
12.2521	970.79	27.3303
12.2547	962.456	27.3694
12.2583	972.788	27.4084
12.2609	965.824	27.44751
12.2646	961.223	27.4866
12.2688	975.435	27.5256
12.2719	961.155	27.5647
12.2746	967.608	27.60376
12.2781	972.626	27.6428
12.2813	958.125	27.6819
12.2843	970.036	27.7209
12.2885	966.2536	27.76001
12.29104	960.506	27.7991
12.2936	971.195	27.8381
12.29677	964.852	27.8772
12.3013	964.2066	27.91626
12.304	968.759	27.9553
12.3074	960.793	27.9944
12.3099	969.738	28.0334
12.3139	966.046	28.07251
12.3166	961.334	28.1116
12.32055	972.074	28.1506
12.3224	959.885	28.1897
12.3264	966.0304	28.22876
12.3299	967.204	28.2678
12.3326	957.132	28.3069
12.3369	967.533	28.3459
12.33982	961.967	28.38501
12.3436	957.328	28.4241
12.3462	965.035	28.4631
12.3488	958.104	28.5022
12.3532	959.253	28.54126
12.35592	963.137	28.5803
12.3596	953.683	28.6194
12.362	963.054	28.6584
12.3651	956.6	28.69751
12.3689	953.651	28.7366
12.3725	965.329	28.7756
12.3761	951.086	28.8147
12.3784	957.058	28.85376
12.3824	961.973	28.8928
12.3855	949.7	28.9319
12.3885	959.36	28.9709
12.3918	956.4339	29.01001
12.3957	949.357	29.0491
12.398	959.852	29.0881
12.4109	-8.80809	29.1272
12.4089	-50.6158	29.16626
12.4101	-38.343	29.2053
12.4125	-46.24332	29.2444
12.4148	-35.6726	29.2834
12.4193	-43.2755	29.32251
12.4218	-43.6664	29.3616
12.4258	-37.057	29.4006
12.42647	-46.4932	29.4397
12.4324	-40.1485	29.47876
12.4341	-36.5293	29.5178
12.4377	-46.9036	29.5569
12.4408	-36.7379	29.5959
12.444	-40.7777	29.63501
12.4476	-46.04509	29.6741
12.4504	-37.043	29.7131
12.4539	-46.2305	29.7522
12.4577	-42.1084	29.79126
12.4609	-40.5169	29.8303
12.46323	-48.0894	29.8694
12.4669	-37.9892	29.9084
12.4702	-43.7746	29.94751
12.47342	-44.6796	29.9866
12.4757	-37.6517	30.0256
12.4808	-46.6406	30.0647
12.4824	-43.811	30.10376
12.4854	-37.3305	30.1428
12.4903	-49.366	30.1819
12.4925	-37.4705	30.2209
12.4964	-42.1252	30.26001
12.5006	-47.8621	30.2991
12.5027	-36.4746	30.3381
12.50593	-45.4844	30.3772
12.5095	-42.8202	30.41626
12.5131	-39.5784	30.4553
12.5163	-44.2913	30.4944
12.5195	-38.8904	30.5334
12.5227	-42.1755	30.57251
12.5257	-44.609	30.6116
12.5286	-36.0803	30.6506
12.5333	-44.9672	30.6897
12.5357	-40.2818	30.72876
12.5385	-35.8002	30.7678
12.54218	-47.8889	30.8069
12.5454	-35.0129	30.8459
12.5478	-41.3287	30.88501
12.5508	-45.0046	30.9241
12.55467	-36.3075	30.9631
12.5588	-44.6975	31.0022
12.5616	-42.1158	31.04126
12.565	-39.5152	31.0803
12.5685	-46.1763	31.1194
12.5708	-40.4391	31.1584
12.5747	-41.4702	31.19751
12.5782	-48.4409	31.2366
12.5807	-37.04208	31.2756
12.5834	-49.5633	31.3147
12.5884	-42.498	31.35376
12.5908	-38.6491	31.3928
12.5934	-44.5629	31.4221