File: data/processed_data_files/tensile/0.254_hd_dimension_typei_090_r(1).dat
MTS793|BTW|ENU|1|2|.|/|:|1|0|0|A

Data Header:			0.254_hd_dimension_typei_090_r0			Time:	20.0193	s	4/15/2019 3:31:24 PM
Data Acquisition:	Timed
Station Name:	ft40.cfg
Test File Name:	monotonic_0.2540_typei_hd_090_dimension.tst
Displacement	Force	Running Time
mm	N	s
9.98145	-207.132	0.0222168
9.98095	-209.0137	0.0905762
9.98766	-205.686	0.158936
9.99212	-202.636	0.227295
9.99877	-199.584	0.2956543
10.0044	-200.976	0.364014
10.00984	-202.2372	0.432373
10.0158	-202.592	0.500732
10.022	-202.672	0.5690918
10.0268	-199.234	0.637451
10.0336	-197.0114	0.705811
10.0385	-196.089	0.77417
10.0451	-192.178	0.8425293
10.0504	-184.784	0.910889
10.0557	-182.758	0.979248
10.062	-182.624	1.04761
10.06667	-181.099	1.11597
10.073	-183.7935	1.18433
10.0779	-183.676	1.25269
10.0849	-179.938	1.32104
10.09	-176.8257	1.3894
10.0956	-177.033	1.45776
10.102	-174.347	1.526123
10.1064	-164.164	1.59448
10.113	-160.294	1.66284
10.1186	-161.111	1.7312
10.12411	-157.969	1.79956
10.1298	-157.029	1.86792
10.1358	-159.4688	1.93628
10.141	-155.698	2.00464
10.1459	-153.048	2.072998
10.1526	-152.575	2.14136
10.1586	-148.631	2.20972
10.1626	-138.878	2.27808
10.169	-135.002	2.34644
10.1762	-133.644	2.41479
10.1813	-128.983	2.48315
10.1861	-127.225	2.55151
10.1927	-129.456	2.619873
10.1984	-127.511	2.68823
10.204	-124.289	2.75659
10.2095	-125.853	2.82495
10.21432	-122.134	2.89331
10.2204	-113.266	2.96167
10.2269	-107.446	3.03003
10.2321	-105.4252	3.09839
10.2379	-99.7496	3.166748
10.2427	-95.3239	3.23511
10.249	-95.2592	3.30347
10.2553	-95.2551	3.37183
10.2611	-94.4127	3.44019
10.2656	-95.2701	3.50854
10.2717	-92.1587	3.5769
10.2777	-82.676	3.64526
10.2838	-77.996	3.713623
10.2888	-72.1919	3.78198
10.2966	-67.7481	3.85034
10.2998	-63.7213	3.9187
10.3055	-62.49622	3.98706
10.3112	-60.7721	4.05542
10.3178	-63.12854	4.12378
10.3231	-61.9383	4.19214
10.3286	-60.3255	4.260498
10.3354	-53.9366	4.32886
10.3409	-46.1684	4.39722
10.3463	-40.5959	4.46558
10.3531	-35.4917	4.53394
10.35759	-33.75729	4.60229
10.3633	-28.38649	4.67065
10.3688	-25.4931	4.73901
10.3743	-26.5577	4.807373
10.3808	-27.3858	4.87573
10.3851	-26.04796	4.94409
10.3929	-18.1481	5.01245
10.3968	-17.1063	5.08081
10.4029	-10.9676	5.14917
10.4077	-3.14518	5.21753
10.414	-1.35173	5.28589
10.4202	6.2304	5.354248
10.4255	10.4921	5.42261
10.4319	9.66171	5.49097
10.4374	6.81992	5.55933
10.443	7.35933	5.62769
10.4493	14.5524	5.69604
10.4538	15.0055	5.7644
10.46	20.0332	5.83276
10.4662	29.9427	5.901123
10.4718	32.4912	5.96948
10.4772	38.2704	6.03784
10.4824	44.7948	6.1062
10.48851	45.9874	6.17456
10.4938	41.9734	6.24292
10.5006	44.0502	6.31128
10.5053	49.2585	6.37964
10.5109	49.2421	6.447998
10.517	54.695	6.51636
10.523	62.3473	6.58472
10.5282	65.6804	6.65308
10.5347	73.289	6.72144
10.53997	79.1082	6.78979
10.5457	82.0925	6.85815
10.55087	78.50988	6.92651
10.558	80.4698	6.994873
10.5626	85.5227	7.06323
10.5678	85.55304	7.13159
10.5739	86.1962	7.19995
10.5796	93.4175	7.26831
10.5854	99.4479	7.33667
10.591	107.105	7.40503
10.5967	112.956	7.47339
10.6023	117.136	7.541748
10.6087	116.88	7.61011
10.6142	115.831	7.67847
10.6194	121.491	7.74683
10.6254	120.954	7.81519
10.6298	123.045	7.88354
10.6374	127.875	7.9519
10.6413	132.724	8.02026
10.6471	141.1465	8.088623
10.6532	148.047	8.15698
10.6597	148.953	8.22534
10.666	151.095	8.2937
10.6717	154.095	8.36206
10.67667	156.931	8.43042
10.6825	156.819	8.49878
10.6872	157.732	8.56714
10.6933	161.152	8.635498
10.6983	164.799	8.70386
10.7048	173.534	8.77222
10.7108	181.6275	8.84058
10.7161	182.174	8.90894
10.7216	185.019	8.97729
10.7273	190.191	9.04565
10.7336	193.991	9.11401
10.7394	192.901	9.182373
10.7443	196.46	9.25073
10.7502	197.37	9.31909
10.7553	198.35	9.38745
10.7631	205.738	9.45581
10.7676	212.598	9.52417
10.7727	215.216	9.59253
10.7793	218.952	9.66089
10.7853	225.324	9.729248
10.7898	230.974	9.79761
10.7961	228.171	9.86597
10.8022	230.0004	9.93433
10.8069	231.261	10.0027
10.81374	233.095	10.071
10.819	237.372	10.1394
10.8243	245.455	10.2078
10.82995	248.717	10.2761
10.8359	251.198	10.3445
10.8417	260.878	10.4128
10.8474	266.0433	10.4812
10.8533	264.956	10.5496
10.85941	264.565	10.61792
10.8638	268.74	10.6863
10.869	269.532	10.7546
10.875	270.404	10.823
10.88032	276.981	10.8914
10.8871	282.56	10.9597
10.8922	284.589	11.0281
10.8976	291.552	11.0964
10.9041	300.631	11.1648
10.9099	301.62	11.2332
10.91513	303.403	11.3015
10.9207	304.205	11.3699
10.9268	304.848	11.4382
10.933	306.359	11.5066
10.9382	310.981	11.575
10.9438	313.189	11.6433
10.9488	316.632	11.71167
10.9553	326.156	11.78
10.9613	333.6311	11.8484
10.96654	335.47	11.9167
10.9722	340.247	11.9851
10.9783	339.517	12.0535
10.9843	338.823	12.1218
10.9898	341.753	12.1902
10.9954	343.087	12.2585
11.0017	345.684	12.3269
11.0063	348.649	12.3953
11.0123	357.621	12.4636
11.0181	365.153	12.532
11.02409	368.495	12.6003
11.0289	374.169	12.6687
11.03527	373.81	12.7371
11.0416	373.779	12.80542
11.0479	376.353	12.8738
11.051	377.696	12.9421
11.0573	377.453	13.0105
11.0634	380.24	13.0789
11.0686	387.966	13.1472
11.075	397.108	13.2156
11.0807	400.384	13.2839
11.08672	406.556	13.3523
11.0914	411.408	13.4207
11.0985	409.301	13.489
11.1039	410.967	13.5574
11.1094	412.555	13.6257
11.1147	410.466	13.6941
11.1208	413.031	13.7625
11.1259	418.5274	13.8308
11.1316	429.383	13.89917
11.1373	430.583	13.9675
11.1433	439.362	14.0359
11.1488	444.845	14.1042
11.15426	443.279	14.1726
11.16115	443.779	14.241
11.1656	447.3363	14.3093
11.1718	444.944	14.3777
11.177	444.583	14.446
11.1835	449.713	14.5144
11.1897	459.511	14.5828
11.1948	462.436	14.6511
11.2004	468.8905	14.7195
11.2062	475.15	14.7878
11.2119	478.055	14.8562
11.21702	477.93	14.9246
11.22297	480.827	14.99292
11.2289	479.984	15.0613
11.2346	477.661	15.1296
11.23904	481.185	15.198
11.2462	487.935	15.2664
11.2513	494.743	15.3347
11.25742	498.913	15.4031
11.2628	506.6452	15.4714
11.2684	509.618	15.5398
11.2745	513.918	15.6082
11.2789	516.089	15.6765
11.2867	515.7605	15.7449
11.2918	511.882	15.8132
11.2983	513.044	15.8816
11.3016	520.007	15.95
11.3086	522.779	16.0183
11.3145	529.614	16.08667
11.3206	535.963	16.155
11.3261	539.292	16.2234
11.33059	545.426	16.2917
11.3365	547.346	16.3601
11.3419	544.999	16.4285
11.3487	544.407	16.4968
11.3542	546.347	16.5652
11.3595	549.181	16.6335
11.3652	551.813	16.7019
11.37	558.541	16.7703
11.3771	565.007	16.8386
11.3831	569.387	16.907
11.3883	574.579	16.9753
11.3933	578.909	17.0437
11.4003	578.316	17.1121
11.4065	576.255	17.18042
11.4111	579.451	17.2488
11.4163	580.053	17.3171
11.422	580.904	17.3855
11.4278	586.125	17.4539
11.4334	594.513	17.5222
11.4395	598.33	17.5906
11.445	604.7356	17.6589
11.4505	611.523	17.7273
11.4568	610.672	17.7957
11.4635	607.284	17.864
11.4682	609.936	17.9324
11.4741	614.403	18.0007
11.4789	611.181	18.0691
11.4856	612.9765	18.1375
11.4901	620.5	18.2058
11.4968	624.423	18.27417
11.501	630.206	18.3425
11.5069	638.906	18.4109
11.5128	641.4776	18.4792
11.5197	639.062	18.5476
11.525	640.379	18.616
11.53032	643.6134	18.6843
11.5375	641.689	18.7527
11.5414	643.6	18.821
11.5472	646.815	18.8894
11.5531	652.762	18.9578
11.5588	658.432	19.0261
11.5656	665.719	19.0945
11.5705	669.917	19.1628
11.5765	669.625	19.2312
11.5821	671.888	19.2996
11.5872	675.533	19.36792
11.5927	672.722	19.4363
11.6002	672.4682	19.5046
11.60542	674.769	19.573
11.6102	677.962	19.6414
11.6164	685.935	19.7097
11.6211	694.3205	19.7781
11.62794	696.373	19.8464
11.6329	697.166	19.9148
11.6384	700.411	19.9832
11.641	694.648	20.0125

Data Header:			0.254_hd_dimension_typei_090_r0			Time:	40.019	s	4/15/2019 3:31:44 PM
Data Acquisition:	Timed
Station Name:	ft40.cfg
Test File Name:	monotonic_0.2540_typei_hd_090_dimension.tst
Displacement	Force	Running Time
mm	N	s
11.6419	697.254	20.0222
11.6483	704.718	20.0906
11.6535	709.465	20.1589
11.6597	714.309	20.2273
11.6654	716.444	20.2957
11.6703	714.306	20.364
11.6764	712.574	20.4324
11.6822	713.819	20.5007
11.6876	716.31	20.5691
11.6929	716.77	20.6375
11.6986	721.11	20.7058
11.70382	728.362	20.77417
11.7105	733.705	20.8425
11.7154	738.395	20.9109
11.721	743.0296	20.9792
11.7282	741.456	21.0476
11.7336	739.837	21.116
11.73937	741.846	21.1843
11.7447	741.465	21.2527
11.7507	741.579	21.321
11.7556	744.886	21.3894
11.7612	751.606	21.4578
11.7673	755.583	21.5261
11.7734	762.38	21.5945
11.7782	767.937	21.6628
11.7844	767.2171	21.7312
11.79	768.661	21.7996
11.7961	768.753	21.86792
11.8024	768.658	21.9363
11.8074	766.156	22.0046
11.8136	771.304	22.073
11.819	772.819	22.1414
11.8242	776.2489	22.2097
11.8299	786.326	22.2781
11.8356	788.743	22.3464
11.841	789.549	22.4148
11.8466	789.38	22.4832
11.8532	790.246	22.5515
11.8581	791.997	22.6199
11.8653	788.302	22.6882
11.8695	791.424	22.7566
11.8762	793.779	22.825
11.8813	796.164	22.8933
11.8869	801.982	22.96167
11.89197	808.831	23.03
11.8989	811.073	23.0984
11.9049	811.258	23.1667
11.9102	814.999	23.2351
11.9162	818.445	23.3035
11.9218	810.508	23.3718
11.9275	812.379	23.4402
11.93216	814.403	23.5085
11.93758	814.029	23.5769
11.9436	817.339	23.6453
11.9493	825.557	23.7136
11.9554	829.194	23.782
11.9609	829.053	23.8503
11.9669	832.87	23.9187
11.9721	836.444	23.9871
11.9778	832.793	24.05542
11.984	830.735	24.1238
11.9898	830.374	24.1921
11.9955	829.538	24.2605
12.0021	835.9101	24.3289
12.007	839.118	24.3972
12.0135	842.553	24.4656
12.0169	844.308	24.5339
12.0233	848.384	24.6023
12.0293	850.726	24.6707
12.0354	848.6767	24.739
12.04032	844.415	24.8074
12.0466	845.319	24.8757
12.0528	843.131	24.9441
12.0578	844.6488	25.0125
12.0628	848.612	25.0808
12.0702	851.469	25.14917
12.0747	853.864	25.2175
12.081	858.1853	25.2859
12.0871	860.071	25.3542
12.0914	859.338	25.4226
12.0981	856.506	25.491
12.1031	855.156	25.5593
12.1091	852.572	25.6277
12.1143	853.859	25.696
12.1205	856.308	25.7644
12.1263	855.631	25.8328
12.1315	858.485	25.9011
12.13806	865.155	25.9695
12.1433	867.2868	26.0378
12.1495	866.281	26.1062
12.155	864.962	26.1746
12.1607	863.56	26.24292
12.1654	858.824	26.3113
12.1716	858.799	26.3796
12.1772	860.5639	26.448
12.1831	859.301	26.5164
12.1896	859.324	26.5847
12.1951	866.711	26.6531
12.2009	870.965	26.7214
12.2059	870.255	26.7898
12.2112	868.366	26.8582
12.2174	868.72	26.9265
12.2235	864.831	26.9949
12.2288	860.588	27.0632
12.2346	862.466	27.1316
12.2393	859.964	27.2
12.2462	856.989	27.2683
12.2519	862.98	27.33667
12.2573	869.209	27.405
12.2628	869.324	27.4734
12.2685	870.101	27.5417
12.2763	871.268	27.6101
12.2802	867.482	27.6785
12.2864	863.3136	27.7468
12.292	861.085	27.8152
12.2967	858.084	27.8835
12.3026	855.94	27.9519
12.3091	858.874	28.0203
12.3145	863.462	28.0886
12.3199	867.102	28.157
12.3257	867.575	28.2253
12.3321	869.826	28.2937
12.3362	865.4	28.3621
12.3422	861.852	28.43042
12.3482	860.301	28.4988
12.3544	856.426	28.5671
12.3594	852.022	28.6355
12.3658	855.925	28.7039
12.3714	859.986	28.7722
12.3771	861.337	28.8406
12.38304	864.368	28.9089
12.3881	866.1496	28.9773
12.3946	861.708	29.0457
12.39974	861.77	29.114
12.4054	859.4845	29.1824
12.4115	854.123	29.2507
12.4162	849.426	29.3191
12.4215	851.9931	29.3875
12.4289	853.575	29.4558
12.4338	853.575	29.52417
12.4393	856.662	29.5925
12.4447	861.657	29.6609
12.4506	857.127	29.7292
12.4568	857.537	29.7976
12.46262	856.81	29.866
12.4682	850.655	29.9343
12.4742	844.409	30.0027
12.4784	845.834	30.071
12.4859	849.807	30.1394
12.4907	847.8764	30.2078
12.4967	850.235	30.2761
12.5028	855.937	30.3445
12.5082	854.041	30.4128
12.5137	854.289	30.4812
12.5193	854.143	30.5496
12.5249	851.151	30.61792
12.531	843.206	30.6863
12.5367	841.969	30.7546
12.5424	844.269	30.823
12.5476	844.622	30.8914
12.5531	844.095	30.9597
12.5597	849.866	31.0281
12.5653	851.568	31.0964
12.5707	852.1897	31.1648
12.5759	853.195	31.2332
12.5817	848.67	31.3015
12.5862	844.347	31.3699
12.5933	841.24	31.4382
12.5993	843.279	31.5066
12.6051	840.604	31.575
12.6104	839.046	31.6433
12.6173	844.788	31.71167
12.6223	846.238	31.78
12.628	851.461	31.8484
12.6333	852.125	31.9167
12.6393	848.452	31.9851
12.64482	844.236	32.0535
12.6502	841.832	32.1218
12.6561	839.902	32.1902
12.6611	839.551	32.2585
12.6673	838.032	32.3269
12.6726	841.137	32.3953
12.6793	842.767	32.4636
12.6837	847.404	32.532
12.69033	850.382	32.6003
12.6958	849.0127	32.6687
12.7019	843.115	32.7371
12.7062	842.478	32.80542
12.7127	840.637	32.8738
12.7192	835.162	32.9421
12.7249	835.594	33.0105
12.7303	837.952	33.0789
12.7366	838.922	33.1472
12.7421	842.616	33.2156
12.7476	849.242	33.2839
12.7531	849.226	33.3523
12.7569	843.59	33.4207
12.7635	842.7	33.489
12.7694	843.465	33.5574
12.7763	838.4071	33.6257
12.7806	834.401	33.6941
12.7885	838.185	33.7625
12.7928	839.291	33.8308
12.798	841.195	33.89917
12.80409	846.34	33.9675
12.81	847.012	34.0359
12.8151	844.889	34.1042
12.8216	842.756	34.1726
12.8273	843.984	34.241
12.8331	839.954	34.3093
12.8387	833.534	34.3777
12.8442	835.215	34.446
12.8498	835.265	34.5144
12.8558	837.104	34.5828
12.8619	840.851	34.6511
12.8663	847.281	34.7195
12.8724	844.3924	34.7878
12.8789	842.446	34.8562
12.8847	844.865	34.9246
12.8887	842.439	34.99292
12.895	835.258	35.0613
12.9009	834.675	35.1296
12.9059	834.203	35.198
12.9119	837.755	35.2664
12.9177	839.315	35.3347
12.9242	842.9425	35.4031
12.9293	841.851	35.4714
12.9353	845.05	35.5398
12.9406	844.323	35.6082
12.9465	843.447	35.6765
12.9529	837.099	35.7449
12.9578	836.04	35.8132
12.9642	832.739	35.8816
12.9698	834.075	35.95
12.975	836.15	36.0183
12.9804	838.852	36.08667
12.9858	839.011	36.155
12.9916	841.695	36.2234
12.9981	844.336	36.2917
13.004	842.057	36.3601
13.0092	839.322	36.4285
13.0144	837.085	36.4968
13.0214	832.076	36.5652
13.0265	832.548	36.6335
13.0312	834.727	36.7019
13.0382	837.616	36.7703
13.0422	835.533	36.8386
13.0491	838.015	36.907
13.0544	843.963	36.9753
13.0608	841.48	37.0437
13.0667	839.5	37.1121
13.072	838.505	37.18042
13.0767	835.784	37.2488
13.0825	831.463	37.3171
13.0894	833.202	37.3855
13.0947	835.521	37.4539
13.09917	835.417	37.5222
13.1062	834.72	37.5906
13.1116	842.862	37.6589
13.11771	844.794	37.7273
13.12319	840.269	37.7957
13.1281	839.521	37.864
13.1347	837.549	37.9324
13.1403	833.651	38.0007
13.146	832.533	38.0691
13.1517	833.037	38.1375
13.1568	833.215	38.2058
13.1631	833.707	38.27417
13.1675	839.616	38.3425
13.1739	843.2735	38.4109
13.1792	841.127	38.4792
13.18598	840.154	38.5476
13.1917	839.095	38.616
13.1975	835.009	38.6843
13.2029	832.311	38.7527
13.2085	831.688	38.821
13.21426	829.984	38.8894
13.2198	830.737	38.9578
13.2255	837.839	39.0261
13.2322	842.09	39.0945
13.2362	840.188	39.1628
13.2428	843.659	39.2312
13.24864	839.7	39.2996
13.2538	836.516	39.36792
13.2593	834.824	39.4363
13.2657	831.619	39.5046
13.2709	829.2887	39.573
13.2767	828.1	39.6414
13.2832	834.047	39.7097
13.2887	837.9859	39.7781
13.2935	839.5766	39.8464
13.3	842.778	39.9148
13.3052	841.702	39.9832
13.3085	829.7959	40.0125

Data Header:			0.254_hd_dimension_typei_090_r0			Time:	49.0435	s	4/15/2019 3:31:53 PM
Data Acquisition:	Timed
Station Name:	ft40.cfg
Test File Name:	monotonic_0.2540_typei_hd_090_dimension.tst
Displacement	Force	Running Time
mm	N	s
13.3096	835.726	40.0222
13.3115	835.583	40.0613
13.3161	841.29	40.1003
13.3185	831.4942	40.1394
13.3214	839.2207	40.1785
13.3244	839.05	40.2175
13.3283	829.075	40.2566
13.3317	840.323	40.2957
13.3353	834.007	40.3347
13.33877	832.36	40.3738
13.3414	841.724	40.4128
13.3439	830.053	40.4519
13.3472	835.182	40.491
13.3515	835.462	40.53
13.35417	830.8089	40.5691
13.35642	837.323	40.6082
13.3613	833.259	40.6472
13.3643	833.151	40.6863
13.36645	837.201	40.7253
13.3697	831.417	40.7644
13.3729	836.743	40.8035
13.3764	835.691	40.8425
13.3806	827.808	40.8816
13.3838	842.865	40.9207
13.3876	830.496	40.9597
13.39049	834.757	40.9988
13.3931	841.174	41.0378
13.39677	828.698	41.0769
13.3999	838.657	41.116
13.4028	839.726	41.155
13.4059	832.509	41.1941
13.4106	842.043	41.2332
13.41253	835.777	41.2722
13.4159	833.255	41.3113
13.4191	841.932	41.3503
13.4221	832.091	41.3894
13.4248	839.911	41.4285
13.4281	839.76	41.4675
13.4327	830.868	41.5066
13.4349	842.136	41.5457
13.4382	832.874	41.5847
13.4415	833.344	41.6238
13.4453	840.627	41.6628
13.4479	830.749	41.7019
13.4522	833.75	41.741
13.4552	838.049	41.78
13.4579	828.901	41.8191
13.4631	837.4101	41.8582
13.4649	834.184	41.8972
13.4685	831.657	41.9363
13.4698	838.719	41.9753
13.47403	829.5274	42.0144
13.4781	838.1037	42.0535
13.48179	835.946	42.0925
13.48467	830.054	42.1316
13.4881	842.687	42.1707
13.4913	831.168	42.2097
13.4941	832.975	42.2488
13.4978	839.642	42.2878
13.5016	828.596	42.3269
13.5039	834.704	42.366
13.5073	840.335	42.405
13.5095	829.01	42.4441
13.5138	840.158	42.4832
13.5172	835.2998	42.5222
13.521	832.298	42.5613
13.5235	842.058	42.6003
13.5266	832.688	42.6394
13.5306	838.82	42.6785
13.5328	839.209	42.7175
13.5375	830.55	42.7566
13.5392	841.4	42.7957
13.5433	836.3	42.8347
13.5463	833.861	42.8738
13.5506	841.301	42.9128
13.5521	831.025	42.9519
13.5569	837.23	42.991
13.5595	840.115	43.03
13.5625	827.925	43.0691
13.5662	840.183	43.1082
13.5689	832.2204	43.1472
13.5731	831.103	43.1863
13.5744	838.988	43.2253
13.5786	829.437	43.2644
13.5829	836.547	43.3035
13.5863	833.472	43.3425
13.5882	828.005	43.3816
13.5927	839.428	43.4207
13.5955	831.239	43.4597
13.598	830.4809	43.4988
13.60187	842.471	43.5378
13.604	828.2981	43.5769
13.6078	836.635	43.616
13.6114	838.606	43.655
13.6143	827.58	43.6941
13.6171	839.84	43.7332
13.622	833.167	43.7722
13.6237	831.4	43.8113
13.62759	838.63	43.8503
13.6314	831.756	43.8894
13.6353	835.603	43.9285
13.6372	838.322	43.9675
13.6408	832.69	44.0066
13.64393	841.096	44.0457
13.647	834.072	44.0847
13.6505	833.962	44.1238
13.655	842.495	44.1628
13.6576	829.29	44.2019
13.661	836.516	44.241
13.6629	837.513	44.28
13.667	828.514	44.3191
13.6695	841.3819	44.3582
13.6737	833.234	44.3972
13.6766	831.896	44.4363
13.6803	838.835	44.4753
13.6824	829.993	44.5144
13.6869	834.366	44.5535
13.6893	836.418	44.5925
13.6931	827.718	44.6316
13.6957	839.43	44.6707
13.6997	830.244	44.7097
13.7022	829.851	44.7488
13.70562	840.567	44.7878
13.7082	824.985	44.8269
13.7121	833.704	44.866
13.7155	836.561	44.905
13.71857	825.3941	44.9441
13.7216	836.621	44.9832
13.7242	835.0105	45.0222
13.7278	826.282	45.0613
13.7318	838.069	45.1003
13.7359	828.763	45.1394
13.7391	832.3548	45.1785
13.7415	836.522	45.2175
13.7452	828.2627	45.2566
13.74768	838.624	45.2957
13.7511	830.932	45.3347
13.7552	833.023	45.3738
13.7576	838.963	45.4128
13.7597	828.575	45.4519
13.7639	837.333	45.491
13.7676	836.348	45.53
13.7714	829.005	45.5691
13.7734	839.454	45.6082
13.77718	833.719	45.6472
13.78141	829.2	45.6863
13.7831	838.329	45.7253
13.7874	828.79	45.7644
13.79	832.814	45.8035
13.7941	835.039	45.8425
13.7967	825.708	45.8816
13.7996	837.352	45.9207
13.8029	826.941	45.9597
13.8065	829.276	45.9988
13.8095	836.483	46.0378
13.8137	823.913	46.0769
13.8162	831.75	46.116
13.82008	835.579	46.155
13.823	824.538	46.1941
13.827	836.114	46.2332
13.8283	830.426	46.2722
13.8328	824.748	46.3113
13.83639	834.874	46.3503
13.8391	825.957	46.3894
13.8424	828.8847	46.4285
13.84492	831.235	46.4675
13.84943	824.609	46.5066
13.8526	833.502	46.5457
13.8555	826.992	46.5847
13.85928	827.83	46.6238
13.8612	832.578	46.6628
13.86482	822.893	46.7019
13.8676	830.2417	46.741
13.8719	829.3891	46.78
13.8745	819.672	46.8191
13.883	-38.5401	46.8582
13.8832	-42.5954	46.8972
13.8859	-46.4303	46.9363
13.8888	-35.9335	46.9753
13.8908	-48.3614	47.0144
13.8957	-40.8862	47.0535
13.8989	-40.0681	47.0925
13.9004	-47.43943	47.1316
13.9058	-38.6266	47.1707
13.9083	-45.6577	47.2097
13.912	-46.1054	47.2488
13.9159	-39.54641	47.2878
13.9179	-49.7421	47.3269
13.92213	-43.5952	47.366
13.9242	-41.8408	47.405
13.9274	-51.688	47.4441
13.9301	-40.7843	47.4832
13.9346	-47.3366	47.5222
13.9372	-49.3182	47.5613
13.9411	-40.5373	47.6003
13.9437	-48.9975	47.6394
13.94789	-43.8142	47.6785
13.95	-43.4079	47.7175
13.9533	-46.0085	47.7566
13.9573	-43.3065	47.7957
13.9593	-47.2732	47.8347
13.9631	-47.2163	47.8738
13.9661	-42.3483	47.9128
13.9695	-50.1523	47.9519
13.9734	-40.93005	47.991
13.9766	-42.4873	48.03
13.98	-50.6797	48.0691
13.983	-38.5827	48.1082
13.9856	-47.8184	48.1472
13.99	-46.1558	48.1863
13.9923	-39.4172	48.2253
13.9958	-49.1408	48.2644
13.9982	-42.5443	48.3035
14.0031	-40.4581	48.3425
14.0052	-47.14397	48.3816
14.009	-40.49728	48.4207
14.0125	-45.4463	48.4597
14.0158	-45.6041	48.4988
14.0189	-38.4779	48.5378
14.0227	-48.3038	48.5769
14.0255	-42.9613	48.616
14.0281	-41.5742	48.655
14.031	-52.0059	48.6941
14.0353	-39.76049	48.7332
14.0375	-48.54	48.7722
14.0409	-47.4966	48.8113
14.0452	-39.90625	48.8503
14.048	-50.1622	48.8894
14.0507	-45.3158	48.9285
14.054	-43.0542	48.9675
14.05738	-49.6087	49.0066
14.0605	-40.0616	49.0359