File: data/processed_data_files/tensile/0.254_solid_dimension_typeiv_090_r(9).dat
MTS793|BTW|ENU|1|2|.|/|:|1|0|0|A

Data Header:			0.254_solid_dimension_typeiv_090_r0			Time:	20.0173	s	4/14/2019 2:06:39 AM
Data Acquisition:	Timed
Station Name:	ft40.cfg
Test File Name:	monotonic_0.2540_typeiv_solid_090_dimension.tst
Displacement	Force	Running Time
mm	N	s
-40.0407	-106.905	0.0224609
-40.0406	-103.448	0.0908203
-40.034	-100.759	0.15918
-40.0297	-98.7092	0.227539
-40.0241	-93.5609	0.295898
-40.0178	-88.2402	0.364258
-40.0119	-87.9504	0.432617
-40.0064	-88.0214	0.500977
-39.9999	-82.2579	0.569336
-39.99461	-80.89167	0.637695
-39.9899	-75.1539	0.706055
-39.9841	-68.8446	0.774414
-39.9771	-65.4647	0.842773
-39.9713	-63.6964	0.911133
-39.9677	-56.5974	0.979492
-39.96	-49.4266	1.04785
-39.9545	-49.71209	1.11621
-39.9494	-48.836	1.18457
-39.9441	-45.199	1.25293
-39.9379	-44.3563	1.32129
-39.9324	-39.6835	1.38965
-39.9261	-33.1523	1.45801
-39.9203	-30.2005	1.52637
-39.9152	-28.5398	1.59473
-39.9098	-20.6934	1.66309
-39.9036	-15.1919	1.73145
-39.8984	-14.198	1.7998
-39.8917	-11.4962	1.86816
-39.8867	-8.46252	1.93652
-39.8812	-7.09013	2.00488
-39.8757	-2.79268	2.07324
-39.8696	0.436455	2.1416
-39.864	5.23728	2.20996
-39.8583	8.28675	2.27832
-39.8529	15.7222	2.34668
-39.8464	21.7151	2.41504
-39.8414	23.9968	2.4834
-39.8353	26.0939	2.55176
-39.8292	27.1257	2.62012
-39.8242	29.86298	2.68848
-39.8174	33.6528	2.75684
-39.8125	36.5821	2.8252
-39.8072	39.64	2.89355
-39.8004	43.8293	2.96191
-39.7951	50.6253	3.03027
-39.7898	55.8518	3.09863
-39.7836	60.4158	3.16699
-39.7783	64.4454	3.23535
-39.7723	66.8244	3.30371
-39.7666	68.4762	3.37207
-39.7616	72.0706	3.44043
-39.7557	73.0947	3.50879
-39.7496	74.3365	3.57715
-39.7441	78.2544	3.64551
-39.7381	85.1475	3.71387
-39.73362	90.9012	3.78223
-39.72699	94.1926	3.85059
-39.7211	99.2878	3.91895
-39.7146	102.751	3.9873
-39.7102	105	4.05566
-39.7043	109.379	4.12402
-39.6983	111.274	4.19238
-39.693	110.5783	4.26074
-39.6876	112.474	4.3291
-39.6817	120.607	4.39746
-39.6746	124.687	4.46582
-39.6704	129.691	4.53418
-39.6635	136.98	4.60254
-39.65889	139.836	4.6709
-39.6515	142.334	4.73926
-39.6479	144.584	4.80762
-39.6421	147.368	4.87598
-39.6366	146.762	4.94434
-39.6302	147.878	5.0127
-39.6246	156.569	5.08105
-39.6192	160.363	5.14941
-39.6136	163.751	5.21777
-39.6079	171.686	5.28613
-39.60355	174.679	5.35449
-39.5971	176.651	5.42285
-39.59	180.022	5.49121
-39.58532	183.687	5.55957
-39.5781	180.508	5.62793
-39.5745	182.299	5.69629
-39.5672	190.715	5.76465
-39.5627	195.1602	5.83301
-39.5563	195.951	5.90137
-39.5511	203.859	5.96973
-39.5446	209.004	6.03809
-39.539	210.571	6.10645
-39.53421	214.601	6.1748
-39.52813	218.593	6.24316
-39.5227	217.434	6.31152
-39.516	216.336	6.37988
-39.5114	224.738	6.44824
-39.5054	226.357	6.5166
-39.4981	229.714	6.58496
-39.4937	235.414	6.65332
-39.487	242.81	6.72168
-39.48217	247.428	6.79004
-39.4765	250.109	6.8584
-39.4718	252.87	6.92676
-39.4651	251.772	6.99512
-39.4606	251.159	7.06348
-39.4545	257.501	7.13184
-39.4492	260.523	7.2002
-39.4422	262.566	7.26855
-39.4368	269.346	7.33691
-39.4308	273.356	7.40527
-39.4258	279.819	7.47363
-39.4203	281.442	7.54199
-39.415	285.5585	7.61035
-39.4088	284.577	7.67871
-39.4033	285.603	7.74707
-39.397	291.678	7.81543
-39.3912	292.488	7.88379
-39.3852	294.727	7.95215
-39.3791	300.011	8.02051
-39.37392	303.601	8.08887
-39.3682	309.423	8.15723
-39.36153	315.196	8.22559
-39.3561	316.47	8.29395
-39.3505	319.531	8.3623
-39.34523	319.283	8.43066
-39.3409	324.302	8.49902
-39.3338	324.776	8.56738
-39.3283	327.746	8.63574
-39.3225	330.795	8.7041
-39.3169	334.885	8.77246
-39.3121	339.474	8.84082
-39.3061	345.833	8.90918
-39.2997	348.48	8.97754
-39.2939	349.207	9.0459
-39.2895	352.153	9.11426
-39.2834	357.2197	9.18262
-39.2773	355.264	9.25098
-39.2717	358.302	9.31934
-39.2659	361.633	9.3877
-39.2602	361.547	9.45605
-39.2538	367.806	9.52441
-39.2477	374.293	9.59277
-39.2435	376.646	9.66113
-39.2385	378.758	9.72949
-39.2321	380.577	9.79785
-39.2256	387.744	9.86621
-39.2201	385.202	9.93457
-39.2143	386.788	10.00293
-39.2098	390.008	10.0713
-39.203	390.749	10.1396
-39.1975	394.549	10.208
-39.1925	401.171	10.2764
-39.1876	404.957	10.3447
-39.1805	405.6835	10.4131
-39.1752	410.726	10.4814
-39.17	416.065	10.5498
-39.1637	413.586	10.6182
-39.1575	413.602	10.6865
-39.1514	418.066	10.7549
-39.14555	417.198	10.8232
-39.1411	420.423	10.8916
-39.1358	426.565	10.96
-39.1304	430.289	11.02832
-39.124	429.151	11.09668
-39.1176	433.67	11.165
-39.1138	441.6889	11.2334
-39.1063	440.6145	11.3018
-39.1017	439.623	11.3701
-39.0944	443.0799	11.4385
-39.0893	441.889	11.5068
-39.0827	443.2063	11.5752
-39.07724	447.58	11.6436
-39.0717	449.775	11.7119
-39.0668	450.447	11.7803
-39.0618	454.055	11.8486
-39.0551	462.72	11.917
-39.04948	462.01	11.9854
-39.0427	459.913	12.0537
-39.0387	462.4032	12.12207
-39.0321	462.729	12.19043
-39.0275	463.252	12.2588
-39.0208	464.3526	12.3271
-39.0163	466.62	12.3955
-39.0104	467.564	12.4639
-39.0045	467.847	12.5322
-38.9976	476.367	12.6006
-38.99221	476.715	12.6689
-38.9875	475.215	12.7373
-38.9805	476.72	12.8057
-38.9759	474.435	12.874
-38.9692	474.6814	12.9424
-38.9641	475.574	13.0107
-38.9574	475.192	13.0791
-38.9535	473.833	13.1475
-38.9467	477.124	13.21582
-38.9418	483.814	13.28418
-38.9353	484.798	13.3525
-38.9301	484.052	13.4209
-38.9246	484.922	13.4893
-38.9185	482.732	13.5576
-38.9136	481.118	13.626
-38.9072	480.047	13.6943
-38.9012	478.848	13.7627
-38.8956	479.154	13.8311
-38.8896	479.8049	13.8994
-38.8835	484.984	13.9678
-38.8783	485.594	14.0361
-38.873	488.86	14.1045
-38.8675	488.516	14.1729
-38.8622	484.243	14.2412
-38.8552	484.63	14.30957
-38.8502	483.661	14.37793
-38.8449	477.732	14.4463
-38.8389	476.249	14.5146
-38.8333	479.828	14.583
-38.8273	481.511	14.6514
-38.8218	481.972	14.7197
-38.8152	485.351	14.7881
-38.8097	486.727	14.8564
-38.8043	483.175	14.9248
-38.7987	483.3143	14.9932
-38.79327	481.519	15.0615
-38.7867	477.052	15.1299
-38.781	473.745	15.1982
-38.7775	473.604	15.2666
-38.771	478.476	15.335
-38.7638	478.202	15.40332
-38.7583	479.575	15.47168
-38.7533	483.283	15.54
-38.7471	478.905	15.6084
-38.7415	479.818	15.6768
-38.7363	478.467	15.7451
-38.7304	474.335	15.8135
-38.7243	468.844	15.8818
-38.7185	469.898	15.9502
-38.7134	473.765	16.0186
-38.708	471.891	16.0869
-38.7018	475.468	16.1553
-38.6962	478.524	16.2236
-38.6917	476.632	16.292
-38.6841	476.172	16.3604
-38.6796	477.017	16.4287
-38.6741	473.2973	16.49707
-38.668	467.228	16.56543
-38.66087	467.365	16.6338
-38.6564	470.295	16.7021
-38.6506	468.8829	16.7705
-38.6448	468.48	16.8389
-38.639	476.023	16.9072
-38.6344	472.919	16.9756
-38.6273	473.915	17.0439
-38.6227	473.54	17.1123
-38.6175	470.229	17.1807
-38.6113	463.714	17.249
-38.60519	465.503	17.3174
-38.5993	467.859	17.3857
-38.5942	465.9176	17.4541
-38.5886	466.519	17.5225
-38.5825	470.163	17.59082
-38.5758	469.995	17.65918
-38.5711	471.153	17.7275
-38.5651	473.613	17.7959
-38.55793	469.612	17.8643
-38.5544	463.436	17.9326
-38.54771	464.204	18.001
-38.5425	466.601	18.0693
-38.5365	462.542	18.1377
-38.5304	462.559	18.2061
-38.5254	465.058	18.2744
-38.5201	467.778	18.3428
-38.514	468.3	18.4111
-38.5067	468.52	18.4795
-38.50201	466.984	18.5479
-38.4959	465.491	18.6162
-38.4909	463.492	18.68457
-38.4851	462.804	18.75293
-38.4806	461.503	18.8213
-38.474	459.785	18.8896
-38.4695	461.989	18.958
-38.4627	464.751	19.0264
-38.4573	466.173	19.0947
-38.4511	466.743	19.1631
-38.4453	465.277	19.2314
-38.4397	464.292	19.2998
-38.4332	465.283	19.3682
-38.4285	461.795	19.4365
-38.42276	459.097	19.5049
-38.4164	459.269	19.5732
-38.4106	458.504	19.6416
-38.4046	460.698	19.71
-38.4005	462.63	19.77832
-38.3944	465.3374	19.84668
-38.3881	462.151	19.915
-38.3837	461.97	19.9834
-38.3807	459.395	20.0127

Data Header:			0.254_solid_dimension_typeiv_090_r0			Time:	25.2324	s	4/14/2019 2:06:45 AM
Data Acquisition:	Timed
Station Name:	ft40.cfg
Test File Name:	monotonic_0.2540_typeiv_solid_090_dimension.tst
Displacement	Force	Running Time
mm	N	s
-38.3802	459.912	20.0225
-38.379	465.327	20.042
-38.3768	460.821	20.0615
-38.3751	458.483	20.0811
-38.37262	461.077	20.1006
-38.37138	462.6322	20.1201
-38.3704	457.306	20.1396
-38.3683	464.143	20.15918
-38.3661	464.263	20.1787
-38.3655	456.174	20.1982
-38.3646	460.588	20.2178
-38.3617	464.887	20.2373
-38.3594	459.726	20.2568
-38.35828	460.261	20.2764
-38.3565	463.192	20.2959
-38.3542	457.496	20.31543
-38.3544	459.061	20.335
-38.3524	463.919	20.3545
-38.35006	460.203	20.374
-38.3487	457.955	20.3936
-38.34668	465.457	20.4131
-38.3451	459.782	20.4326
-38.3448	458.067	20.4521
-38.3422	462.4559	20.47168
-38.3402	464.435	20.4912
-38.33728	457.865	20.5107
-38.33773	461.067	20.5303
-38.3364	459.38	20.5498
-38.3338	459.848	20.5693
-38.3331	459.95	20.5889
-38.3307	465.755	20.6084
-38.3288	458.686	20.62793
-38.328	457.689	20.6475
-38.3261	461.077	20.667
-38.32407	461.714	20.6865
-38.3226	455.588	20.7061
-38.3205	461.952	20.7256
-38.3196	460.35	20.7451
-38.3178	455.038	20.7646
-38.3148	459.564	20.78418
-38.3141	461.1571	20.8037
-38.3122	456.431	20.8232
-38.3114	459.95	20.8428
-38.309	462.59	20.8623
-38.3075	453.5838	20.8818
-38.3068	455.14	20.9014
-38.3053	461.591	20.9209
-38.3035	456.857	20.94043
-38.3018	456.106	20.96
-38.30027	462.063	20.9795
-38.2994	455.014	20.999
-38.2974	456.437	21.0186
-38.2946	461.821	21.0381
-38.2935	459.348	21.0576
-38.291	452.835	21.0771
-38.2896	461.491	21.09668
-38.2891	457.9606	21.1162
-38.2877	455.236	21.1357
-38.2855	458.22	21.1553
-38.285	460.227	21.1748
-38.2812	456.011	21.1943
-38.2811	456.893	21.2139
-38.2797	457.976	21.2334
-38.2765	455.187	21.25293
-38.2749	456.274	21.2725
-38.2739	461.798	21.292
-38.272	456.995	21.3115
-38.2706	454.447	21.3311
-38.2683	456.344	21.3506
-38.2667	458.244	21.3701
-38.266	452.4053	21.3896
-38.26577	457.6257	21.40918
-38.2625	459.088	21.4287
-38.2606	452.07	21.4482
-38.259	454.095	21.4678
-38.2568	459.849	21.4873
-38.2571	452.715	21.5068
-38.2552	455.409	21.5264
-38.2529	461.26	21.5459
-38.2509	452.4054	21.56543
-38.2489	451.1767	21.585
-38.2471	458.464	21.6045
-38.2456	455.409	21.624
-38.24519	452.6077	21.6436
-38.2429	458.95	21.6631
-38.24123	452.18	21.6826
-38.23983	451.792	21.7021
-38.2376	457.599	21.72168
-38.2359	457.892	21.7412
-38.2349	449.934	21.7607
-38.2337	455.803	21.7803
-38.23201	454.66	21.7998
-38.2303	451.823	21.8193
-38.2285	451.135	21.8389
-38.2274	457.269	21.8584
-38.2249	452.647	21.87793
-38.2232	454.194	21.8975
-38.2218	452.119	21.917
-38.2198	453.32	21.9365
-38.2178	448.797	21.9561
-38.2161	456.676	21.9756
-38.2148	454.515	21.9951
-38.2134	448.635	22.0146
-38.2126	450.444	22.03418
-38.2104	455.25	22.0537
-38.2095	450.545	22.0732
-38.2069	452.503	22.0928
-38.2064	455.343	22.1123
-38.2046	446.627	22.1318
-38.2015	449.821	22.1514
-38.2	454.707	22.1709
-38.199	448.2	22.19043
-38.1975	448.003	22.21
-38.1967	455.401	22.2295
-38.1929	446.834	22.249
-38.19276	444.646	22.2686
-38.19046	450.041	22.2881
-38.1892	451.265	22.3076
-38.1878	444.321	22.3271
-38.1861	450.052	22.34668
-38.1856	444.022	22.3662
-38.1827	440.184	22.3857
-38.1767	-19.2042	22.4053
-38.1761	-64.4505	22.4248
-38.1759	-41.6521	22.4443
-38.1743	-44.0901	22.4639
-38.17466	-41.2137	22.4834
-38.1717	-43.2829	22.50293
-38.1702	-46.9078	22.5225
-38.1689	-40.7571	22.542
-38.1665	-42.932	22.5615
-38.1656	-45.5235	22.5811
-38.164	-44.4439	22.6006
-38.1623	-41.1909	22.6201
-38.1612	-47.7505	22.6396
-38.1595	-40.9154	22.65918
-38.1564	-40.6453	22.6787
-38.1564	-47.6289	22.6982
-38.1547	-45.6165	22.7178
-38.15234	-38.813	22.7373
-38.1519	-45.6362	22.7568
-38.1499	-43.3687	22.7764
-38.149	-41.2123	22.7959
-38.1483	-47.14909	22.81543
-38.1457	-45.954	22.835
-38.1429	-38.9655	22.8545
-38.142	-44.3819	22.874
-38.1404	-48.6078	22.8936
-38.1392	-40.0788	22.9131
-38.1365	-44.4494	22.9326
-38.1363	-46.9747	22.9521
-38.1343	-42.3974	22.97168
-38.1309	-40.4292	22.9912
-38.131	-46.0402	23.0107
-38.128	-41.8224	23.0303
-38.12756	-44.228	23.0498
-38.1252	-44.4815	23.0693
-38.1237	-45.009	23.0889
-38.1215	-39.39772	23.1084
-38.1202	-45.547	23.12793
-38.1195	-46.2632	23.1475
-38.1169	-43.6253	23.167
-38.11665	-41.8241	23.1865
-38.114	-47.0361	23.2061
-38.1122	-40.9784	23.2256
-38.1109	-43.32605	23.2451
-38.1091	-46.5358	23.2646
-38.1074	-43.959	23.28418
-38.1064	-41.1821	23.3037
-38.10416	-47.8466	23.3232
-38.1027	-43.5738	23.3428
-38.10043	-40.7857	23.3623
-38.0988	-47.0253	23.3818
-38.0977	-46.6549	23.4014
-38.097	-40.0509	23.4209
-38.0956	-46.3907	23.44043
-38.0929	-45.7283	23.46
-38.0904	-41.4378	23.4795
-38.0907	-46.08416	23.499
-38.0876	-47.43399	23.5186
-38.08746	-40.1714	23.5381
-38.0838	-42.3486	23.5576
-38.083	-48.3536	23.5771
-38.0821	-41.9204	23.59668
-38.0799	-43.2097	23.6162
-38.07803	-47.6061	23.6357
-38.07618	-45.0467	23.6553
-38.075	-40.5988	23.6748
-38.0734	-46.5947	23.6943
-38.0712	-41.4622	23.7139
-38.0715	-43.76754	23.7334
-38.0688	-44.36771	23.75293
-38.0668	-47.533	23.7725
-38.0657	-40.0252	23.792
-38.0627	-43.3596	23.8115
-38.0617	-46.4436	23.8311
-38.06028	-44.3138	23.8506
-38.0586	-40.5188	23.8701
-38.0577	-46.1715	23.8896
-38.0549	-40.9119	23.90918
-38.0537	-42.0659	23.9287
-38.05151	-47.7906	23.9482
-38.05061	-45.7529	23.9678
-38.04921	-40.1556	23.9873
-38.0481	-47.4059	24.0068
-38.0465	-46.6159	24.0264
-38.0451	-38.037	24.0459
-38.0425	-45.818	24.06543
-38.042	-48.2477	24.085
-38.0387	-40.5485	24.1045
-38.0384	-43.2199	24.124
-38.0363	-47.5964	24.1436
-38.0344	-40.4981	24.1631
-38.0333	-45.4141	24.1826
-38.0311	-48.1938	24.2021
-38.0298	-40.8394	24.22168
-38.0274	-41.5563	24.2412
-38.0264	-47.228	24.2607
-38.0249	-42.2871	24.2803
-38.0229	-42.9866	24.2998
-38.0221	-44.4653	24.3193
-38.02	-45.2052	24.3389
-38.0176	-40.3182	24.3584
-38.0157	-46.333	24.37793
-38.0148	-42.7822	24.3975
-38.0121	-44.3542	24.417
-38.0115	-43.1546	24.4365
-38.0093	-48.5161	24.4561
-38.0094	-40.047	24.4756
-38.0067	-41.6476	24.4951
-38.00491	-46.4516	24.5146
-38.004	-45.61488	24.53418
-38.0017	-41.1559	24.5537
-37.9999	-46.2934	24.5732
-37.9989	-43.6014	24.5928
-37.9971	-40.9921	24.6123
-37.9966	-49.1885	24.6318
-37.9934	-45.7011	24.6514
-37.99226	-39.2074	24.6709
-37.9895	-46.9674	24.69043
-37.9882	-46.87	24.71
-37.9873	-38.8049	24.7295
-37.9867	-46.2365	24.749
-37.9839	-49.6124	24.7686
-37.9826	-42.6134	24.7881
-37.9803	-41.8887	24.8076
-37.9782	-46.103	24.8271
-37.9769	-41.906	24.84668
-37.9748	-43.8542	24.8662
-37.9748	-47.965	24.8857
-37.9717	-43.8283	24.9053
-37.9709	-38.2202	24.9248
-37.9696	-46.272	24.9443
-37.9673	-43.6505	24.9639
-37.96566	-44.49662	24.9834
-37.96434	-43.8367	25.00293
-37.9635	-47.1144	25.0225
-37.961	-40.4367	25.042
-37.9594	-44.8546	25.0615
-37.9582	-45.4957	25.0811
-37.956	-43.44	25.1006
-37.9547	-40.1962	25.1201
-37.9524	-48.9727	25.1396
-37.9523	-42.3135	25.15918
-37.9496	-39.9017	25.1787
-37.9485	-47.3971	25.1982
-37.9463	-45.3228	25.2178
-37.9457	-40.23077	25.2275