File: data/processed_data_files/tensile/0.254_solid_dimension_typei_090_r(5).dat
MTS793|BTW|ENU|1|2|.|/|:|1|0|0|A

Data Header:			0.254_solid_dimension_typei_090_r0			Time:	20.0176	s	4/15/2019 2:26:46 PM
Data Acquisition:	Timed
Station Name:	ft40.cfg
Test File Name:	monotonic_0.2540_typei_solid_090_dimension.tst
Displacement	Force	Running Time
mm	N	s
9.97195	-164.062	0.0224609
9.973547	-158.4306	0.0908203
9.9789	-155.858	0.15918
9.98322	-150.317	0.227539
9.98914	-140.2	0.295898
9.9951	-133.537	0.364258
10.0012	-128.767	0.432617
10.0065	-123.555	0.500977
10.0123	-121.094	0.569336
10.0179	-124.013	0.637695
10.0243	-123.5	0.706055
10.0292	-116.608	0.774414
10.03502	-115.066	0.842773
10.0401	-113.129	0.911133
10.0466	-101.739	0.979492
10.0535	-94.93573	1.04785
10.0575	-86.0385	1.11621
10.0635	-81.0828	1.18457
10.0697	-77.377	1.25293
10.07528	-81.0238	1.32129
10.0801	-80.5285	1.38965
10.08623	-75.1889	1.45801
10.0922	-75.5515	1.52637
10.09846	-71.8623	1.59473
10.1033	-64.38858	1.66309
10.1087	-57.8548	1.73145
10.1141	-48.2518	1.7998
10.1201	-40.7083	1.86816
10.126	-37.1064	1.93652
10.13168	-35.9912	2.00488
10.13751	-34.5742	2.07324
10.14338	-31.7193	2.1416
10.1486	-31.5262	2.20996
10.155	-27.9732	2.27832
10.1603	-27.0281	2.34668
10.1655	-17.5581	2.41504
10.1717	-8.64156	2.4834
10.1773	-1.91282	2.55176
10.1823	3.11352	2.62012
10.1892	7.09971	2.68848
10.1945	11.83647	2.75684
10.2004	11.7806	2.8252
10.2045	11.0967	2.89355
10.2113	14.8224	2.96191
10.2168	16.6555	3.03027
10.22278	21.3337	3.09863
10.2286	31.3775	3.16699
10.2345	38.5612	3.23535
10.2405	42.5924	3.30371
10.246	50.4854	3.37207
10.2516	55.9765	3.44043
10.2571	57.6475	3.50879
10.2627	55.4254	3.57715
10.2683	57.3303	3.64551
10.2749	57.939	3.71387
10.2804	62.4128	3.78223
10.2859	70.3591	3.85059
10.2918	80.5251	3.91895
10.2957	82.9806	3.9873
10.30333	89.6937	4.05566
10.308	99.5448	4.12402
10.3138	97.9592	4.19238
10.3209	99.714	4.26074
10.326	102.534	4.3291
10.3309	101.113	4.39746
10.3371	104.412	4.46582
10.3432	111.7006	4.53418
10.3478	117.989	4.60254
10.3529	120.729	4.6709
10.359	132.5285	4.73926
10.36564	141.214	4.80762
10.3716	141.8759	4.87598
10.3761	145.294	4.94434
10.3821	147.536	5.0127
10.38723	145.776	5.08105
10.394	147.198	5.14941
10.3989	152.466	5.21777
10.4051	157.048	5.28613
10.4109	161.672	5.35449
10.4156	169.621	5.42285
10.4221	181.4274	5.49121
10.4275	185.124	5.55957
10.4339	188.901	5.62793
10.4398	190.268	5.69629
10.4444	190.247	5.76465
10.4514	190.1515	5.83301
10.4558	194.233	5.90137
10.4622	196.427	5.96973
10.4669	200.664	6.03809
10.4738	210.232	6.10645
10.4789	221.293	6.1748
10.4848	225.778	6.24316
10.49071	229.059	6.31152
10.4965	235.863	6.37988
10.5025	235.508	6.44824
10.5085	235.8017	6.5166
10.5133	236.201	6.58496
10.5196	235.843	6.65332
10.5245	241.895	6.72168
10.5303	248.538	6.79004
10.5364	258.691	6.8584
10.5425	265.396	6.92676
10.54626	272.44	6.99512
10.5539	275.0386	7.06348
10.55872	278.8743	7.13184
10.5644	280.045	7.2002
10.5704	279.35	7.26855
10.5767	279.416	7.33691
10.581	282.365	7.40527
10.58737	289.998	7.47363
10.5934	296.237	7.54199
10.5993	305.155	7.61035
10.6055	312.314	7.67871
10.6101	316.603	7.74707
10.6162	322.908	7.81543
10.6211	324.217	7.88379
10.62676	322.451	7.95215
10.632	320.938	8.02051
10.639	324.467	8.08887
10.6445	329.053	8.15723
10.6505	331.396	8.22559
10.6562	340.759	8.29395
10.6608	350.028	8.3623
10.6675	355.931	8.43066
10.67215	363.285	8.49902
10.6788	368.724	8.56738
10.6846	366.254	8.63574
10.68844	362.969	8.7041
10.6954	365.6481	8.77246
10.7009	367.317	8.84082
10.707	368.558	8.90918
10.7123	378.158	8.97754
10.7189	388.118	9.0459
10.724	394.205	9.11426
10.7305	403.125	9.18262
10.73686	410.581	9.25098
10.7407	409.307	9.31934
10.7474	406.357	9.3877
10.7524	409.641	9.45605
10.7573	410.269	9.52441
10.7637	409.129	9.59277
10.7702	415.406	9.66113
10.7748	424.389	9.72949
10.7809	430.45	9.79785
10.7869	441.881	9.86621
10.7931	451.199	9.93457
10.7989	452.578	10.00293
10.8046	451.007	10.0713
10.8108	454.882	10.1396
10.8159	453.3259	10.208
10.8216	451.423	10.2764
10.8271	455.653	10.3447
10.83391	462.467	10.4131
10.8385	470.191	10.4814
10.8449	479.081	10.5498
10.8506	488.0448	10.6182
10.8544	493.115	10.6865
10.8619	491.282	10.7549
10.8663	497.036	10.8232
10.8729	495.474	10.8916
10.8776	492.24	10.96
10.8845	494.421	11.02832
10.8902	497.111	11.09668
10.8958	507.869	11.165
10.9002	515.714	11.2334
10.9068	523.167	11.3018
10.91225	527.976	11.3701
10.918	532.936	11.4385
10.9242	537.727	11.5068
10.93074	538.062	11.5752
10.9357	535.175	11.6436
10.9406	533.522	11.7119
10.9476	535.474	11.7803
10.9527	542.892	11.8486
10.9578	551.314	11.917
10.9633	557.954	11.9854
10.969	565.127	12.0537
10.97508	574.13	12.12207
10.9795	578.157	12.19043
10.9863	577.762	12.2588
10.99264	577.544	12.3271
10.999	575.68	12.3955
11.0042	574.978	12.4639
11.0094	579.443	12.5322
11.0148	585.944	12.6006
11.021	591.172	12.6689
11.0267	600.33	12.7373
11.0327	610.734	12.8057
11.0384	614.956	12.874
11.0437	616.194	12.9424
11.0492	619.441	13.0107
11.0551	616.034	13.0791
11.0612	613.852	13.1475
11.0659	617.259	13.21582
11.0723	623.022	13.28418
11.0784	623.256	13.3525
11.0843	632.355	13.4209
11.0895	647.116	13.4893
11.0947	651.179	13.5576
11.1008	654.106	13.626
11.10548	659.912	13.6943
11.1115	658.379	13.7627
11.1172	654.764	13.8311
11.1231	655.667	13.8994
11.1284	658.18	13.9678
11.1336	658.982	14.0361
11.1405	666.574	14.1045
11.1456	680.427	14.1729
11.1518	684.816	14.2412
11.1579	691.045	14.30957
11.1626	697.365	14.37793
11.1684	695.968	14.4463
11.1749	694.098	14.5146
11.1806	695.395	14.583
11.1863	695.94	14.6514
11.1927	695.084	14.7197
11.1977	700.201	14.7881
11.2031	711.23	14.8564
11.2075	719.416	14.9248
11.2142	726.134	14.9932
11.2207	732.331	15.0615
11.2255	735.487	15.1299
11.2313	734.406	15.1982
11.2363	734.028	15.2666
11.24269	732.711	15.335
11.249	730.114	15.40332
11.2544	734.917	15.47168
11.2588	742.116	15.54
11.2657	750.732	15.6084
11.271	757.718	15.6768
11.2778	766.559	15.7451
11.2835	769.213	15.8135
11.2886	773.399	15.8818
11.2943	771.354	15.9502
11.2995	768.676	16.0186
11.3057	766.97	16.0869
11.3114	769.476	16.1553
11.3174	776.196	16.2236
11.3229	781.762	16.292
11.3276	790.968	16.3604
11.3342	798.2821	16.4287
11.3407	805.092	16.49707
11.3457	808.883	16.56543
11.35104	808.22	16.6338
11.3571	803.192	16.7021
11.3616	804.094	16.7705
11.3696	806.516	16.8389
11.37401	806.699	16.9072
11.38	812.1759	16.9756
11.3856	820.378	17.0439
11.3917	828.0224	17.1123
11.397	834.856	17.1807
11.4023	841.593	17.249
11.4085	842.687	17.3174
11.41404	837.966	17.3857
11.4189	839.058	17.4541
11.4256	839.148	17.5225
11.4302	838.713	17.59082
11.43725	842.964	17.65918
11.44101	850.487	17.7275
11.44759	855.546	17.7959
11.4537	864.523	17.8643
11.4594	873.989	17.9326
11.465	873.357	18.001
11.4711	873.317	18.0693
11.4762	874.097	18.1377
11.4817	873.565	18.2061
11.4876	870.042	18.2744
11.4933	873.846	18.3428
11.4989	877.911	18.4111
11.5048	883.304	18.4795
11.5107	891.964	18.5479
11.5162	900.935	18.6162
11.5218	903.22	18.68457
11.5283	902.372	18.75293
11.5338	907.327	18.8213
11.5396	905.9549	18.8896
11.5456	900.118	18.958
11.55083	902.786	19.0264
11.556	905.46	19.0947
11.56167	911.143	19.1631
11.5676	916.7334	19.2314
11.5732	924.224	19.2998
11.579	927.498	19.3682
11.5848	930.351	19.4365
11.59044	935.514	19.5049
11.5954	933.3559	19.5732
11.6019	928.897	19.6416
11.6085	929.311	19.71
11.6132	931.147	19.77832
11.6191	934.8949	19.84668
11.6247	939.762	19.915
11.6302	944.7428	19.9834
11.6331	946.462	20.0127

Data Header:			0.254_solid_dimension_typei_090_r0			Time:	40.0195	s	4/15/2019 2:27:06 PM
Data Acquisition:	Timed
Station Name:	ft40.cfg
Test File Name:	monotonic_0.2540_typei_solid_090_dimension.tst
Displacement	Force	Running Time
mm	N	s
11.63414	941.335	20.0225
11.6391	939.257	20.09082
11.64485	943.462	20.15918
11.6496	949.754	20.2275
11.6561	953.407	20.2959
11.6617	962.991	20.3643
11.6678	968.214	20.4326
11.6736	968.186	20.501
11.6784	966.887	20.5693
11.6849	967.564	20.6377
11.6904	963.969	20.7061
11.6959	960.061	20.7744
11.7014	965.338	20.8428
11.7069	966.752	20.9111
11.7132	971.8703	20.9795
11.7192	976.815	21.0479
11.725	984.857	21.1162
11.7305	984.643	21.18457
11.7359	984.434	21.25293
11.7408	988.705	21.3213
11.7479	982.9679	21.3896
11.7542	979.5957	21.458
11.7593	980.743	21.5264
11.76343	980.67	21.5947
11.7702	982.223	21.6631
11.7753	991.106	21.7314
11.781	997.513	21.7998
11.7874	996.424	21.8682
11.7928	998.873	21.9365
11.7987	1001.48	22.0049
11.8047	998.379	22.0732
11.81	993.239	22.1416
11.8167	991.402	22.21
11.8204	991.505	22.27832
11.8275	993.454	22.34668
11.8329	996.339	22.415
11.8386	1001.46	22.4834
11.84509	1004.03	22.5518
11.8503	1007.17	22.6201
11.8556	1011.15	22.6885
11.86132	1008.54	22.7568
11.8674	1004.23	22.8252
11.872	1001.3	22.8936
11.8786	999.764	22.9619
11.8845	999.791	23.0303
11.8899	1001.82	23.0986
11.8955	1003.13	23.167
11.90076	1007.93	23.2354
11.9068	1013.11	23.3037
11.9132	1015.8	23.37207
11.9185	1015.07	23.44043
11.9239	1012.22	23.5088
11.9298	1007.62	23.5771
11.9362	1005.98	23.6455
11.94046	1006.1	23.7139
11.9482	1003.558	23.7822
11.9519	1002.9	23.8506
11.9572	1005.86	23.9189
11.964	1013.01	23.9873
11.97	1015.62	24.0557
11.9753	1014.92	24.124
11.9797	1015.3	24.1924
11.9863	1010.88	24.2607
11.993	1007.18	24.3291
11.9976	1007.36	24.3975
12.0034	1004.15	24.46582
12.00915	1000.447	24.53418
12.0161	1004.88	24.6025
12.0212	1011.35	24.6709
12.0257	1010.5	24.7393
12.0325	1014.23	24.8076
12.0372	1017.78	24.876
12.0437	1011.61	24.9443
12.0489	1010.18	25.0127
12.0558	1007.32	25.0811
12.061	1002.53	25.1494
12.0664	998.086	25.2178
12.0718	1001.24	25.2861
12.0787	1007.63	25.3545
12.08319	1006.321	25.4229
12.0902	1009.82	25.4912
12.0944	1014.8	25.55957
12.1012	1012	25.62793
12.10616	1009.69	25.6963
12.1116	1007.07	25.7646
12.1183	1001.28	25.833
12.1232	994.612	25.9014
12.12882	997.444	25.9697
12.13443	1001.17	26.0381
12.1404	1002.46	26.1064
12.1466	1003.98	26.1748
12.1515	1010.42	26.2432
12.1576	1010.14	26.3115
12.1639	1008.56	26.3799
12.1684	1007.39	26.4482
12.1749	1000.44	26.5166
12.1803	992.799	26.585
12.1858	995.202	26.65332
12.19122	996.026	26.72168
12.1973	996.055	26.79
12.2025	999.517	26.8584
12.2085	1004.537	26.9268
12.2149	1006.32	26.9951
12.2199	1005.813	27.0635
12.2259	1003.68	27.1318
12.23196	998.764	27.2002
12.2374	992.48	27.2686
12.2435	992.853	27.3369
12.2483	991.819	27.4053
12.2539	991.119	27.4736
12.26	993.247	27.542
12.26612	997.478	27.6104
12.2712	1001.66	27.6787
12.2775	1002.739	27.74707
12.2826	1002.34	27.81543
12.288	997.142	27.8838
12.2958	992.987	27.9521
12.3012	990.1286	28.0205
12.305	988.1	28.0889
12.3111	986.811	28.1572
12.3169	989.124	28.2256
12.32264	992.387	28.2939
12.3283	998.171	28.3623
12.3342	1000.9	28.4307
12.3398	1000	28.499
12.3466	995.76	28.5674
12.351	993.824	28.6357
12.3562	991.8999	28.7041
12.3614	985.292	28.7725
12.3685	984.87	28.84082
12.3746	987.155	28.90918
12.3795	986.604	28.9775
12.3856	994.443	29.0459
12.3903	997.542	29.1143
12.3962	995.356	29.1826
12.4021	994.047	29.251
12.4076	994.2843	29.3193
12.4129	991.603	29.3877
12.4198	985.693	29.4561
12.4241	982.839	29.5244
12.4304	983.685	29.5928
12.4357	984	29.6611
12.442	986.767	29.7295
12.4468	992.985	29.7979
12.4526	991.979	29.8662
12.4595	991.926	29.93457
12.4639	995.752	30.00293
12.4706	993.309	30.0713
12.4761	986.0791	30.1396
12.4813	982.854	30.208
12.4868	983.588	30.2764
12.4924	982.231	30.3447
12.4992	984.373	30.4131
12.504	989.676	30.4814
12.5099	989.137	30.5498
12.5156	990.055	30.6182
12.5211	995.34	30.6865
12.5273	993.637	30.7549
12.5337	988.463	30.8232
12.5388	986.743	30.8916
12.5436	983.597	30.96
12.5501	982.622	31.02832
12.5549	981.818	31.09668
12.561	986.9436	31.165
12.5666	985.922	31.2334
12.57312	988.624	31.3018
12.5787	993.135	31.3701
12.58505	992.124	31.4385
12.58975	987.597	31.5068
12.59556	987.271	31.5752
12.6009	983.23	31.6436
12.6062	981.906	31.7119
12.6128	982	31.7803
12.6188	981.779	31.8486
12.6244	983.914	31.917
12.6294	986.896	31.9854
12.6355	992.161	32.0537
12.6417	992.49	32.12207
12.64701	993.216	32.19043
12.6527	987.435	32.2588
12.6591	984.147	32.3271
12.664	982.872	32.3955
12.67	980.457	32.4639
12.6754	977.555	32.5322
12.6803	980.045	32.6006
12.6874	983.944	32.6689
12.6936	988.995	32.7373
12.6986	989.994	32.8057
12.7041	990.143	32.874
12.7108	989.202	32.9424
12.7157	986.052	33.0107
12.7214	983.573	33.0791
12.7264	981.97	33.1475
12.7322	975.751	33.21582
12.739	976.0567	33.28418
12.7434	982.259	33.3525
12.7499	986.265	33.4209
12.7549	986.225	33.4893
12.7609	990.09	33.5576
12.7664	988.873	33.626
12.7717	987.3103	33.6943
12.7787	986.555	33.7627
12.7833	981.094	33.8311
12.78924	974.817	33.8994
12.79481	975.073	33.9678
12.80044	982.324	34.0361
12.8064	979.473	34.1045
12.8125	982.2406	34.1729
12.8181	988.926	34.2412
12.8236	988.847	34.30957
12.8286	987.281	34.37793
12.8348	986.865	34.4463
12.8415	984.529	34.5146
12.8461	975.4	34.583
12.8518	974.132	34.6514
12.8584	979.449	34.7197
12.8631	978.211	34.7881
12.86851	981.816	34.8564
12.8741	986.969	34.9248
12.8803	987.732	34.9932
12.8853	988.809	35.0615
12.8915	989.7403	35.1299
12.8973	985.483	35.1982
12.9038	977.372	35.2666
12.909	976.579	35.335
12.914	978.477	35.40332
12.9203	976.347	35.47168
12.92584	977.122	35.54
12.9328	983.961	35.6084
12.9372	986.523	35.6768
12.9431	989.422	35.7451
12.948	992.023	35.8135
12.9544	988.023	35.8818
12.9597	980.044	35.9502
12.9653	976.289	36.0186
12.9726	978.917	36.0869
12.9768	975.72	36.1553
12.9831	976.815	36.2236
12.9896	980.759	36.292
12.9941	983.255	36.3604
12.9999	988.7926	36.4287
13.0057	990.281	36.49707
13.0116	987.04	36.56543
13.0179	982.803	36.6338
13.0239	980.326	36.7021
13.02862	979.105	36.7705
13.0348	975.115	36.8389
13.0398	975.457	36.9072
13.0441	977.107	36.9756
13.0515	981.387	37.0439
13.0568	986.403	37.1123
13.0625	987.354	37.1807
13.0687	986.155	37.249
13.0737	985.52	37.3174
13.0788	983.108	37.3857
13.085	978.86	37.4541
13.0903	975.043	37.5225
13.0964	974.633	37.59082
13.1036	972.583	37.65918
13.1089	978.024	37.7275
13.1137	984.685	37.7959
13.1199	985.4361	37.8643
13.1254	983.645	37.9326
13.1306	987.439	38.001
13.1369	986.896	38.0693
13.1425	979.929	38.1377
13.1499	976.745	38.2061
13.1535	976.316	38.2744
13.1588	971.716	38.3428
13.1663	975.764	38.4111
13.1712	981.0448	38.4795
13.1778	982.898	38.5479
13.1821	982.65	38.6162
13.1891	986.553	38.68457
13.1937	986.907	38.75293
13.199	981.412	38.8213
13.2052	978.772	38.8896
13.21176	978.583	38.958
13.21587	972.754	39.0264
13.2232	973.427	39.0947
13.2277	977.992	39.1631
13.2337	978.3158	39.2314
13.23888	978.08	39.2998
13.2458	983.399	39.3682
13.2502	987.656	39.4365
13.2568	981.268	39.5049
13.2624	980.124	39.5732
13.269	977.367	39.6416
13.2736	972.9303	39.71
13.2796	972.25	39.77832
13.2854	974.737	39.84668
13.2901	972.207	39.915
13.2958	973.906	39.9834
13.2994	978.823	40.0127

Data Header:			0.254_solid_dimension_typei_090_r0			Time:	42.6653	s	4/15/2019 2:27:09 PM
Data Acquisition:	Timed
Station Name:	ft40.cfg
Test File Name:	monotonic_0.2540_typei_solid_090_dimension.tst
Displacement	Force	Running Time
mm	N	s
13.2993	972.547	40.0225
13.3001	967.671	40.0322
13.3007	975.7276	40.042
13.3031	981.9826	40.0518
13.3033	981.975	40.0615
13.3033	977.0274	40.0713
13.3046	972.466	40.0811
13.3049	971.797	40.09082
13.3063	970.111	40.1006
13.3068	977.797	40.1104
13.3077	984.427	40.1201
13.3087	980.973	40.1299
13.3094	974.259	40.1396
13.30959	968.2002	40.1494
13.3116	968.1297	40.15918
13.31193	977.169	40.1689
13.3123	980.816	40.1787
13.3133	980.326	40.1885
13.31412	976.633	40.1982
13.3153	970.659	40.208
13.3153	969.328	40.2178
13.317	973.419	40.2275
13.3164	975.657	40.2373
13.3186	982.5918	40.24707
13.3184	978.598	40.2568
13.3188	970.7124	40.2666
13.3206	967.416	40.2764
13.32149	971.009	40.2861
13.3224	977.769	40.2959
13.323	978.753	40.3057
13.3238	977.948	40.31543
13.3252	974.855	40.3252
13.3252	969.057	40.335
13.32588	969.667	40.3447
13.3281	969.521	40.3545
13.327	977.297	40.3643
13.329	979.864	40.374
13.3296	972.487	40.3838
13.33109	970.163	40.3936
13.331	966.79	40.40332
13.3319	967.979	40.4131
13.3331	973.215	40.4229
13.33371	973.433	40.4326
13.3351	974.779	40.4424
13.33628	970.789	40.4521
13.3358	965.674	40.4619
13.3373	963.794	40.47168
13.3377	966.729	40.4814
13.339	973.534	40.4912
13.3385	972.963	40.501
13.3406	968.321	40.5107
13.3413	960.211	40.5205
13.3417	958.573	40.5303
13.3448	159.219	40.54
13.35	-35.51387	40.5498
13.3499	-15.4804	40.55957
13.3495	-38.3446	40.5693
13.35	-47.0812	40.5791
13.3494	-53.0781	40.5889
13.3503	-50.4083	40.5986
13.3503	-38.6976	40.6084
13.3511	-38.1504	40.6182
13.3518	-34.92878	40.62793
13.3523	-46.5581	40.6377
13.3535	-45.8171	40.6475
13.355	-49.3728	40.6572
13.3561	-48.4998	40.667
13.35515	-37.8884	40.6768
13.3555	-36.8712	40.6865
13.3574	-38.4764	40.6963
13.3576	-46.8141	40.7061
13.3585	-53.6694	40.71582
13.3596	-45.8194	40.7256
13.35913	-41.80827	40.7354
13.36	-35.4543	40.7451
13.36214	-37.0918	40.7549
13.3623	-45.184	40.7646
13.3629	-47.3431	40.7744
13.3638	-50.1536	40.78418
13.3639	-42.8718	40.7939
13.365	-36.3911	40.8037
13.3665	-36.6861	40.8135
13.3667	-40.93	40.8232
13.3676	-51.6254	40.833
13.368	-50.16777	40.8428
13.37013	-44.7046	40.8525
13.3701	-38.4441	40.8623
13.3713	-36.1819	40.87207
13.3713	-39.0796	40.8818
13.3724	-44.3939	40.8916
13.3739	-46.6214	40.9014
13.3748	-48.0488	40.9111
13.37562	-42.6933	40.9209
13.37599	-35.3101	40.9307
13.3767	-36.3273	40.94043
13.37743	-42.7099	40.9502
13.3791	-48.4067	40.96
13.3801	-48.2166	40.9697
13.3801	-43.1186	40.9795
13.3807	-40.2494	40.9893
13.3815	-38.3401	40.999
13.3825	-40.6216	41.0088
13.3835	-44.4415	41.0186
13.3843	-48.0099	41.02832
13.3854	-48.94817	41.0381
13.3861	-41.70668	41.0479
13.3866	-35.7409	41.0576
13.3877	-39.6565	41.0674
13.3887	-42.7948	41.0771
13.3891	-48.77927	41.0869
13.38959	-46.5373	41.09668
13.3902	-43.1415	41.1064
13.3911	-41.0212	41.1162
13.3928	-36.4095	41.126
13.393	-38.5615	41.1357
13.3937	-46.1007	41.1455
13.3955	-49.9756	41.1553
13.3962	-46.4296	41.165
13.39597	-38.8883	41.1748
13.3974	-36.5478	41.18457
13.3986	-38.66288	41.1943
13.399	-44.39151	41.2041
13.3997	-48.8302	41.2139
13.3986	-48.035	41.2236
13.401	-44.8805	41.2334
13.4019	-38.4361	41.2432
13.40309	-35.6929	41.25293
13.4037	-40.5692	41.2627
13.4043	-49.9619	41.2725
13.4054	-50.6559	41.2822
13.4063	-45.8727	41.292
13.4063	-36.6586	41.3018
13.40761	-36.2223	41.3115
13.4081	-42.3154	41.3213
13.4101	-43.6408	41.3311
13.4097	-49.1762	41.34082
13.4101	-48.8735	41.3506
13.4119	-41.2873	41.3604
13.4137	-37.6848	41.3701
13.41398	-35.7052	41.3799
13.4147	-44.2119	41.3896
13.4152	-51.459	41.3994
13.4159	-49.2299	41.40918
13.4176	-42.7217	41.4189
13.4173	-37.41732	41.4287
13.4176	-38.4221	41.4385
13.4194	-42.0377	41.4482
13.4195	-48.047	41.458
13.4206	-51.6514	41.4678
13.4215	-45.757	41.4775
13.4227	-40.6658	41.4873
13.4227	-36.1232	41.49707
13.4242	-36.84993	41.5068
13.4246	-48.8989	41.5166
13.4249	-50.1071	41.5264
13.426	-46.5689	41.5361
13.4262	-42.2589	41.5459
13.4282	-39.012	41.5557
13.4279	-39.81216	41.56543
13.4295	-43.5144	41.5752
13.4294	-45.9229	41.585
13.43037	-49.4256	41.5947
13.4321	-45.1353	41.6045
13.4329	-39.4844	41.6143
13.4341	-38.113	41.624
13.4339	-40.7308	41.6338
13.4342	-46.4892	41.6436
13.4365	-49.6337	41.65332
13.436	-45.6472	41.6631
13.4378	-42.998	41.6729
13.438	-37.06842	41.6826
13.4391	-39.9767	41.6924
13.441	-42.2918	41.7021
13.4413	-45.9903	41.7119
13.4425	-50.8805	41.72168
13.4424	-43.336	41.7314
13.4435	-38.4239	41.7412
13.4453	-38.26231	41.751
13.445	-40.1606	41.7607
13.4453	-49.505	41.7705
13.4468	-48.6369	41.7803
13.4473	-46.8109	41.79
13.4474	-43.0857	41.7998
13.4484	-36.3502	41.80957
13.4498	-37.0921	41.8193
13.4505	-41.6576	41.8291
13.4516	-50.266	41.8389
13.4513	-50.4853	41.8486
13.4538	-43.348	41.8584
13.4543	-36.3209	41.8682
13.4541	-37.4986	41.87793
13.4549	-43.0131	41.8877
13.4561	-48.6908	41.8975
13.456	-49.184	41.9072
13.4595	-48.187	41.917
13.4583	-40.3295	41.9268
13.4591	-36.2539	41.9365
13.4611	-38.5346	41.9463
13.461	-46.1587	41.9561
13.4627	-51.7538	41.96582
13.4634	-48.448	41.9756
13.4641	-40.10741	41.9854
13.465	-36.4768	41.9951
13.4657	-40.115	42.0049
13.4653	-43.9222	42.0146
13.4668	-49.4696	42.0244
13.4674	-49.6399	42.03418
13.4679	-43.8412	42.0439
13.469	-39.6829	42.0537
13.47	-34.0554	42.0635
13.4719	-40.2391	42.0732
13.4719	-49.7422	42.083
13.4719	-49.3677	42.0928
13.4721	-45.3752	42.1025
13.4743	-36.93232	42.1123
13.4747	-37.7586	42.12207
13.4761	-39.5265	42.1318
13.4765	-45.2546	42.1416
13.4772	-50.57822	42.1514
13.4779	-46.2948	42.1611
13.4786	-44.6866	42.1709
13.4793	-38.5739	42.1807
13.4811	-36.91869	42.19043
13.4811	-47.007	42.2002
13.4828	-48.1374	42.21
13.4836	-48.78706	42.2197
13.4833	-43.5716	42.2295
13.485	-39.09465	42.2393
13.4857	-40.2251	42.249
13.4861	-39.87318	42.2588
13.4875	-44.6005	42.2686
13.4881	-49.201	42.27832
13.489	-47.3614	42.2881
13.4891	-43.4614	42.2979
13.4904	-37.48064	42.3076
13.4914	-39.0139	42.3174
13.4918	-43.73177	42.3271
13.492	-48.198	42.3369
13.49437	-46.4978	42.34668
13.4934	-45.2124	42.3564
13.4952	-41.0736	42.3662
13.4957	-38.7802	42.376
13.4954	-39.2941	42.3857
13.4985	-45.3707	42.3955
13.4987	-51.36945	42.4053
13.4995	-47.2179	42.415
13.4991	-41.081	42.4248
13.5005	-35.5674	42.43457
13.5014	-37.2495	42.4443
13.5024	-47.6969	42.4541
13.5025	-48.0461	42.4639
13.5042	-48.1527	42.4736
13.5056	-45.2289	42.4834
13.5051	-36.7072	42.4932
13.5078	-37.5625	42.50293
13.5073	-41.2154	42.5127
13.5084	-48.8001	42.5225
13.5095	-51.91605	42.5322
13.50995	-44.6099	42.542
13.5106	-39.072	42.5518
13.512	-35.6686	42.5615
13.51316	-41.3331	42.5713
13.51273	-47.5779	42.5811
13.5137	-47.6726	42.59082
13.5153	-48.46521	42.6006
13.5153	-41.8228	42.6104
13.517	-36.1246	42.6201
13.5171	-38.7036	42.6299
13.518	-43.4719	42.6396
13.5191	-51.9564	42.6494
13.5191	-50.4814	42.65918