File: data/processed_data_files/tensile/0.254_hd_dimension_typei_090_r(2).dat
MTS793|BTW|ENU|1|2|.|/|:|1|0|0|A

Data Header:			0.254_hd_dimension_typei_090_r0			Time:	20.0176	s	4/15/2019 3:34:19 PM
Data Acquisition:	Timed
Station Name:	ft40.cfg
Test File Name:	monotonic_0.2540_typei_hd_090_dimension.tst
Displacement	Force	Running Time
mm	N	s
9.98021	-160.049	0.0222168
9.98199	-160.342	0.0905762
9.98684	-160.789	0.158936
9.99266	-159.744	0.227295
9.99863	-160.051	0.2956543
10.0049	-154.775	0.364014
10.0099	-149.547	0.432373
10.0165	-146.914	0.500732
10.0208	-143.393	0.5690918
10.0272	-135.687	0.637451
10.0326	-132.336	0.705811
10.0387	-132.59	0.77417
10.0447	-133.246	0.8425293
10.0513	-132.588	0.910889
10.0561	-133.147	0.979248
10.0608	-129.8932	1.04761
10.067	-121.733	1.11597
10.0727	-120.315	1.18433
10.0787	-118.093	1.25269
10.0851	-108.42	1.32104
10.0912	-102.712	1.3894
10.096	-102.93	1.45776
10.1013	-100.471	1.526123
10.1068	-99.8929	1.59448
10.1123	-101.543	1.66284
10.11909	-99.0255	1.7312
10.12382	-95.0973	1.79956
10.1303	-92.5767	1.86792
10.1355	-91.1462	1.93628
10.1407	-79.7343	2.00464
10.1469	-73.7157	2.072998
10.1523	-71.3206	2.14136
10.1582	-69.2588	2.20972
10.1631	-65.3174	2.27808
10.1688	-66.956	2.34644
10.1749	-65.5234	2.41479
10.1808	-62.8827	2.48315
10.1865	-60.2411	2.55151
10.1923	-57.9478	2.619873
10.1981	-52.0618	2.68823
10.2037	-42.3792	2.75659
10.2093	-40.0907	2.82495
10.2151	-35.5479	2.89331
10.2213	-31.9533	2.96167
10.22695	-31.8145	3.03003
10.2327	-31.251	3.09839
10.2385	-29.8667	3.166748
10.2445	-29.50864	3.23511
10.24936	-27.072	3.30347
10.2557	-19.9073	3.37183
10.2611	-10.9243	3.44019
10.2663	-7.80548	3.50854
10.2715	-2.61184	3.5769
10.277	1.33583	3.64526
10.2828	0.452539	3.713623
10.2889	3.60057	3.78198
10.2955	5.01415	3.85034
10.3008	4.99306	3.9187
10.3062	7.03622	3.98706
10.3122	13.4283	4.05542
10.3173	22.0312	4.12378
10.323	25.4736	4.19214
10.3295	32.2918	4.260498
10.3355	36.6889	4.32886
10.3407	38.4876	4.39722
10.3446	39.452	4.46558
10.3517	42.4875	4.53394
10.3575	40.3614	4.60229
10.36277	39.7184	4.67065
10.3684	46.6344	4.73901
10.3743	53.5566	4.807373
10.3792	57.59314	4.87573
10.3861	66.9286	4.94409
10.3917	72.8321	5.01245
10.3968	74.2826	5.08081
10.40271	76.4499	5.14917
10.4083	80.5001	5.21753
10.4135	77.3272	5.28589
10.4203	75.9366	5.354248
10.4252	80.60408	5.42261
10.4314	88.0577	5.49097
10.4366	90.5087	5.55933
10.443	96.9099	5.62769
10.4475	105.5123	5.69604
10.45403	107.926	5.7644
10.4598	112.819	5.83276
10.46611	114.74	5.901123
10.4717	116.566	5.96948
10.4771	112.74	6.03784
10.48227	113.485	6.1062
10.489	123.4884	6.17456
10.4941	124.701	6.24292
10.4998	128.888	6.31128
10.5055	138.98	6.37964
10.5114	144.129	6.447998
10.5167	148.706	6.51636
10.5217	151.2552	6.58472
10.5287	152.507	6.65308
10.5352	150.658	6.72144
10.5388	150.929	6.78979
10.5445	156.395	6.85815
10.5513	158.023	6.92651
10.5563	162.757	6.994873
10.5633	170.169	7.06323
10.5682	175.6	7.13159
10.5737	183.193	7.19995
10.5794	185.999	7.26831
10.5846	188.4	7.33667
10.5918	186.2166	7.40503
10.5971	187.99	7.47339
10.6025	190.199	7.541748
10.6082	192.251	7.61011
10.6136	196.636	7.67847
10.6204	202.69	7.74683
10.6248	207.864	7.81519
10.6312	216.309	7.88354
10.6362	221.94	7.9519
10.642	222.633	8.02026
10.6473	221.135	8.088623
10.6536	224.984	8.15698
10.6596	227.227	8.22534
10.6648	226.633	8.2937
10.6701	228.927	8.36206
10.6764	236.2332	8.43042
10.6815	241.709	8.49878
10.6876	249.342	8.56714
10.6931	256.515	8.635498
10.70013	260.287	8.70386
10.70452	257.095	8.77222
10.7118	261.645	8.84058
10.7166	263.517	8.90894
10.7222	263.422	8.97729
10.7281	262.878	9.04565
10.7328	269.175	9.11401
10.7398	274.221	9.182373
10.7441	280.156	9.25073
10.7499	289.53	9.31909
10.7555	295.636	9.38745
10.76215	294.4769	9.45581
10.7668	296.5	9.52417
10.77332	301.596	9.59253
10.778	299.081	9.66089
10.7846	298.698	9.729248
10.7905	302.65	9.79761
10.7963	306.655	9.86597
10.801	313.075	9.93433
10.8069	319.295	10.0027
10.8135	327.179	10.071
10.8167	328.111	10.1394
10.8249	332.5379	10.2078
10.8311	338.065	10.2761
10.8352	337.555	10.3445
10.8416	336.103	10.4128
10.8479	336.768	10.4812
10.8522	338.844	10.5496
10.8583	346.223	10.61792
10.8646	351.373	10.6863
10.8696	358.473	10.7546
10.8753	361.912	10.823
10.881	366.7	10.8914
10.8868	372.4	10.9597
10.89301	371.205	11.0281
10.8984	371.4545	11.0964
10.9051	371.307	11.1648
10.909	371.545	11.2332
10.9157	377.632	11.3015
10.9209	382.429	11.3699
10.9271	389.614	11.4382
10.9329	393.444	11.5066
10.9394	400.004	11.575
10.9444	407.296	11.6433
10.9488	407.249	11.71167
10.9556	404.851	11.78
10.9603	408.784	11.8484
10.9663	406.964	11.9167
10.972	409.548	11.9851
10.9775	415.291	12.0535
10.98357	420.304	12.1218
10.9889	425.053	12.1902
10.9955	431.5126	12.2585
11.0021	440.687	12.3269
11.006	442.754	12.3953
11.0132	439.012	12.4636
11.0184	442.665	12.532
11.0235	442.218	12.6003
11.0298	441.716	12.6687
11.0339	446.287	12.7371
11.0423	451.274	12.80542
11.0457	454.033	12.8738
11.0518	459.542	12.9421
11.0573	471.201	13.0105
11.0645	474.157	13.0789
11.0688	474.791	13.1472
11.0749	477.29	13.2156
11.08112	479.122	13.2839
11.08635	477.603	13.3523
11.0925	478.0434	13.4207
11.0976	482.184	13.489
11.1039	485.034	13.5574
11.1088	490.468	13.6257
11.1142	500.198	13.6941
11.1209	507.102	13.7625
11.1265	507.732	13.8308
11.13125	509.848	13.89917
11.1372	511.542	13.9675
11.14286	511.17	14.0359
11.14958	511.843	14.1042
11.1539	514.065	14.1726
11.1613	515.654	14.241
11.1665	520.301	14.3093
11.171	529.713	14.3777
11.1772	536.536	14.446
11.1838	541.404	14.5144
11.1889	544.341	14.5828
11.1955	543.568	14.6511
11.2007	544.044	14.7195
11.206	545.224	14.7878
11.2109	545.135	14.8562
11.2171	545.081	14.9246
11.2214	551.537	14.99292
11.2285	558.169	15.0613
11.2347	563.927	15.1296
11.2395	570.528	15.198
11.2464	576.704	15.2664
11.2523	575.196	15.3347
11.2567	577.998	15.4031
11.26305	577.52	15.4714
11.2685	577.328	15.5398
11.2744	574.837	15.6082
11.2808	578.643	15.6765
11.2853	587.817	15.7449
11.2912	592.329	15.8132
11.29698	598.231	15.8816
11.3033	604.053	15.95
11.3089	609.089	16.0183
11.314	606.06	16.08667
11.3204	610.294	16.155
11.3252	611.263	16.2234
11.3311	606.42	16.2917
11.3361	608.045	16.3601
11.3427	615.366	16.4285
11.3479	621.84	16.4968
11.3538	625.573	16.5652
11.35988	632.6004	16.6335
11.365	638.857	16.7019
11.3709	639.566	16.7703
11.3775	641.243	16.8386
11.3824	642.648	16.907
11.3877	639.549	16.9753
11.394	635.827	17.0437
11.39933	643.589	17.1121
11.406	647.5694	17.18042
11.412	650.88	17.2488
11.4177	658.9549	17.3171
11.4226	664.898	17.3855
11.427	668.685	17.4539
11.43359	672.7326	17.5222
11.4397	672.863	17.5906
11.44471	669.505	17.6589
11.4514	668.265	17.7273
11.4574	671.063	17.7957
11.4616	674.474	17.864
11.4686	678.93	17.9324
11.4733	684.999	18.0007
11.4795	690.813	18.0691
11.48535	695.909	18.1375
11.4912	700.9826	18.2058
11.4971	701.051	18.27417
11.50229	700.01	18.3425
11.5082	699.302	18.4109
11.5135	700.993	18.4792
11.5194	701.252	18.5476
11.5244	704.653	18.616
11.531	711.304	18.6843
11.5363	717.825	18.7527
11.5435	721.294	18.821
11.5476	728.159	18.8894
11.5532	730.885	18.9578
11.55855	728.102	19.0261
11.5653	726.179	19.0945
11.5697	728.354	19.1628
11.5767	728.5509	19.2312
11.5819	728.598	19.2996
11.588	734.84	19.36792
11.593	741.3595	19.4363
11.599	744.297	19.5046
11.6049	751.572	19.573
11.6098	756.3244	19.6414
11.6165	754.664	19.7097
11.6221	754.747	19.7781
11.6274	756.592	19.8464
11.6329	755.364	19.9148
11.64	751.69	19.9832
11.6411	766.168	20.0125

Data Header:			0.254_hd_dimension_typei_090_r0			Time:	40.0176	s	4/15/2019 3:34:39 PM
Data Acquisition:	Timed
Station Name:	ft40.cfg
Test File Name:	monotonic_0.2540_typei_hd_090_dimension.tst
Displacement	Force	Running Time
mm	N	s
11.6422	769.115	20.0222
11.648	767.958	20.0906
11.6533	765.733	20.1589
11.6582	761.364	20.2273
11.6653	764.211	20.2957
11.6709	768.8078	20.364
11.6767	772.013	20.4324
11.68252	777.548	20.5007
11.6885	783.825	20.5691
11.69222	785.374	20.6375
11.6989	789.275	20.7058
11.7049	790.704	20.77417
11.7103	789.243	20.8425
11.71726	785.001	20.9109
11.7224	786.346	20.9792
11.7281	789.263	21.0476
11.73375	790.44	21.116
11.7393	794.719	21.1843
11.7439	801.208	21.2527
11.7505	804.329	21.321
11.7564	810.88	21.3894
11.7618	814.86	21.4578
11.7674	811.5603	21.5261
11.7724	807.327	21.5945
11.7791	805.464	21.6628
11.7839	809.806	21.7312
11.7895	807.526	21.7996
11.7954	810.329	21.86792
11.8027	816.667	21.9363
11.8087	822.169	22.0046
11.81426	825.696	22.073
11.8195	830.549	22.1414
11.8246	829.36	22.2097
11.8302	825.234	22.2781
11.8367	824.205	22.3464
11.8417	825.718	22.4148
11.8467	822.444	22.4832
11.85306	824.9444	22.5515
11.85757	829.241	22.6199
11.8643	832.252	22.6882
11.8692	837.776	22.7566
11.8756	842.459	22.825
11.88131	844.741	22.8933
11.8881	840.598	22.96167
11.892	839.887	23.03
11.8989	839.89	23.0984
11.9039	838.317	23.1667
11.9089	835.722	23.2351
11.916	838.212	23.3035
11.9216	842.653	23.3718
11.92731	846.553	23.4402
11.9321	852.331	23.5085
11.9389	853.443	23.5769
11.9431	852.003	23.6453
11.95	851.994	23.7136
11.9545	850.629	23.782
11.961	846.838	23.8503
11.96733	844.66	23.9187
11.9718	845.906	23.9871
11.9777	847.826	24.05542
11.9831	853.727	24.1238
11.9888	858.308	24.1921
11.9947	858.306	24.2605
12.0008	858.277	24.3289
12.007	860.91	24.3972
12.0134	860.0246	24.4656
12.0187	855.443	24.5339
12.0236	852.9928	24.6023
12.0295	851.825	24.6707
12.0348	850.897	24.739
12.0405	856.623	24.8074
12.046	860.394	24.8757
12.05201	860.573	24.9441
12.0588	861.498	25.0125
12.0637	865.632	25.0808
12.0687	865.781	25.14917
12.0759	858.9743	25.2175
12.0805	856.691	25.2859
12.0861	855.258	25.3542
12.0923	852.811	25.4226
12.0969	854.472	25.491
12.103	859.366	25.5593
12.109	859.327	25.6277
12.11522	860.801	25.696
12.1216	866.5495	25.7644
12.1268	867.673	25.8328
12.13266	861.183	25.9011
12.1383	859.8974	25.9695
12.1436	857.306	26.0378
12.1498	853.906	26.1062
12.15507	852.622	26.1746
12.1612	857.652	26.24292
12.1665	858.831	26.3113
12.17201	856.782	26.3796
12.17718	862.324	26.448
12.1834	866.189	26.5164
12.1892	860.967	26.5847
12.1945	860.841	26.6531
12.1999	858.27	26.7214
12.2048	852.95	26.7898
12.2125	851.405	26.8582
12.2171	852.502	26.9265
12.2227	854.228	26.9949
12.2277	852.838	27.0632
12.2349	858.56	27.1316
12.2403	863.754	27.2
12.2466	860.648	27.2683
12.2516	858.617	27.33667
12.2572	856.225	27.405
12.2629	851.611	27.4734
12.2692	849.674	27.5417
12.27399	848.489	27.6101
12.2801	847.16	27.6785
12.2847	848.037	27.7468
12.2919	853.164	27.8152
12.2974	857.285	27.8835
12.3018	857.533	27.9519
12.3091	857.156	28.0203
12.3139	854.31	28.0886
12.3198	851.3537	28.157
12.3264	849.439	28.2253
12.33107	846.8302	28.2937
12.3373	842.859	28.3621
12.3436	844.173	28.43042
12.3482	848.419	28.4988
12.3543	851.738	28.5671
12.3595	852.404	28.6355
12.3664	855.042	28.7039
12.3701	852.816	28.7722
12.37689	850.28	28.8406
12.3819	848.498	28.9089
12.3887	846.504	28.9773
12.3939	840.044	29.0457
12.3991	838.966	29.114
12.4045	844.771	29.1824
12.4118	848.646	29.2507
12.4167	846.686	29.3191
12.4232	851.624	29.3875
12.4275	851.965	29.4558
12.4339	847.276	29.52417
12.4394	847.454	29.5925
12.4456	846.532	29.6609
12.4512	837.739	29.7292
12.4574	837.239	29.7976
12.4617	840.113	29.866
12.4689	843.38	29.9343
12.4744	842.879	30.0027
12.4804	848.657	30.071
12.4849	851.14	30.1394
12.4903	848.62	30.2078
12.497	847.042	30.2761
12.5027	843.65	30.3445
12.5081	838.438	30.4128
12.514	834.299	30.4812
12.5198	836.041	30.5496
12.5248	839.376	30.61792
12.5305	840.552	30.6863
12.5359	842.261	30.7546
12.54197	846.899	30.823
12.5478	848.787	30.8914
12.5535	847.506	30.9597
12.5596	845.735	31.0281
12.56486	839.945	31.0964
12.5707	833.359	31.1648
12.5756	836.983	31.2332
12.582	836.146	31.3015
12.5885	836.807	31.3699
12.5929	839.59	31.4382
12.5998	843.212	31.5066
12.6043	845.635	31.575
12.6098	844.913	31.6433
12.61612	846.516	31.71167
12.6222	839.47	31.78
12.6266	836.16	31.8484
12.6337	835.282	31.9167
12.6382	832.609	31.9851
12.6439	834.552	32.0535
12.6497	837.373	32.1218
12.6551	838.901	32.1902
12.6616	842.739	32.2585
12.6681	846.2691	32.3269
12.6732	844.003	32.3953
12.6788	840.659	32.4636
12.6841	837.875	32.532
12.6907	835.505	32.6003
12.696	831.617	32.6687
12.7014	831.505	32.7371
12.7068	833.665	32.80542
12.7131	835.065	32.8738
12.718	840.73	32.9421
12.7242	844.306	33.0105
12.7304	845.202	33.0789
12.7376	841.578	33.1472
12.7413	838.613	33.2156
12.7465	837.214	33.2839
12.75211	832.933	33.3523
12.7573	831.23	33.4207
12.7629	831.989	33.489
12.76987	832.277	33.5574
12.77629	836.775	33.6257
12.7816	841.176	33.6941
12.7877	842.979	33.7625
12.7922	838.797	33.8308
12.7981	840.2038	33.89917
12.8042	840.8446	33.9675
12.8104	834.713	34.0359
12.8159	831.427	34.1042
12.8205	831.861	34.1726
12.8269	832.235	34.241
12.8323	834.974	34.3093
12.83846	838.9483	34.3777
12.8435	841.219	34.446
12.8506	837.9422	34.5144
12.8545	839.119	34.5828
12.8618	840.819	34.6511
12.8668	837.29	34.7195
12.87219	830.672	34.7878
12.8785	831.649	34.8562
12.884	830.206	34.9246
12.8887	830.027	34.99292
12.8949	834.129	35.0613
12.9004	839.047	35.1296
12.9067	839.105	35.198
12.91323	840.009	35.2664
12.9169	843.638	35.3347
12.9233	840.0022	35.4031
12.9293	834.1452	35.4714
12.9347	831.185	35.5398
12.9401	829.652	35.6082
12.9469	830.582	35.6765
12.9513	834.161	35.7449
12.9581	835.898	35.8132
12.9647	836.446	35.8816
12.9689	839.048	35.95
12.9746	842.883	36.0183
12.9796	838.102	36.08667
12.9868	836.643	36.155
12.9919	833.017	36.2234
12.998	829.886	36.2917
13.0035	830.172	36.3601
13.0089	831.473	36.4285
13.0153	832.355	36.4968
13.0216	833.231	36.5652
13.026	839.314	36.6335
13.0315	840.852	36.7019
13.0379	840.5603	36.7703
13.0436	837.984	36.8386
13.0482	836.305	36.907
13.0546	831.938	36.9753
13.0612	829.084	37.0437
13.0666	830.511	37.1121
13.0716	828.905	37.18042
13.0777	830.151	37.2488
13.0822	838.193	37.3171
13.0887	839.376	37.3855
13.0952	839.736	37.4539
13.1	840.96	37.5222
13.1058	837.366	37.5906
13.1114	832.1485	37.6589
13.1181	830.915	37.7273
13.1232	831.48	37.7957
13.1292	827.6955	37.864
13.13447	825.67	37.9324
13.1404	835.358	38.0007
13.1455	840.085	38.0691
13.1517	837.349	38.1375
13.1568	839.629	38.2058
13.163	841.6441	38.27417
13.1684	835.154	38.3425
13.174	832.003	38.4109
13.1799	830.794	38.4792
13.1842	826.389	38.5476
13.19171	826.607	38.616
13.1978	832.8299	38.6843
13.2018	836.4693	38.7527
13.20889	837.0517	38.821
13.2143	839.551	38.8894
13.2199	841.9342	38.9578
13.2258	838.0058	39.0261
13.23202	835.331	39.0945
13.237	833.426	39.1628
13.2432	828.226	39.2312
13.2476	824.265	39.2996
13.254	829.086	39.36792
13.2599	834.019	39.4363
13.26527	835.501	39.5046
13.2709	839.089	39.573
13.2772	839.1427	39.6414
13.28286	838.8692	39.7097
13.2884	837.14	39.7781
13.29388	831.47	39.8464
13.2989	826.874	39.9148
13.3057	825.888	39.9832
13.30736	840.784	40.0125

Data Header:			0.254_hd_dimension_typei_090_r0			Time:	48.8513	s	4/15/2019 3:34:48 PM
Data Acquisition:	Timed
Station Name:	ft40.cfg
Test File Name:	monotonic_0.2540_typei_hd_090_dimension.tst
Displacement	Force	Running Time
mm	N	s
13.30848	838.426	40.0222
13.3116	833.664	40.0613
13.315	828.697	40.1003
13.31868	839.467	40.1394
13.3221	828.8269	40.1785
13.32469	833.443	40.2175
13.3273	837.8	40.2566
13.3312	830.834	40.2957
13.335	839.346	40.3347
13.3369	831.752	40.3738
13.341	831.515	40.4128
13.3454	838.999	40.4519
13.3478	830.326	40.491
13.3515	834.487	40.53
13.3544	838.423	40.5691
13.3581	827.689	40.6082
13.3608	838.103	40.6472
13.3648	832.702	40.6863
13.3668	829.093	40.7253
13.3699	837.242	40.7644
13.3746	827.333	40.8035
13.3763	834.285	40.8425
13.381	833.316	40.8816
13.3835	826.011	40.9207
13.3864	836.732	40.9597
13.3902	828.123	40.9988
13.3939	828.614	41.0378
13.3958	838.636	41.0769
13.3991	825.1048	41.116
13.4026	833.24	41.155
13.4059	836.702	41.1941
13.4091	822.565	41.2332
13.4124	836.5365	41.2722
13.416	831.799	41.3113
13.4199	827.063	41.3503
13.4225	837.693	41.3894
13.4261	828.856	41.4285
13.4295	832.127	41.4675
13.4325	835.1828	41.5066
13.4353	828.933	41.5457
13.4378	836.387	41.5847
13.4419	832.835	41.6238
13.4455	829.68	41.6628
13.4482	840.248	41.7019
13.4512	826.537	41.741
13.4547	834.736	41.78
13.4581	836.464	41.8191
13.4618	827.6449	41.8582
13.4653	837.357	41.8972
13.4686	831.1925	41.9363
13.4719	829.016	41.9753
13.4739	835.645	42.0144
13.4784	827.177	42.0535
13.4817	831.792	42.0925
13.4847	832.779	42.1316
13.4883	825.291	42.1707
13.49148	836.743	42.2097
13.4937	829.042	42.2488
13.4978	827.178	42.2878
13.5002	836.908	42.3269
13.5052	824.766	42.366
13.5063	834.59	42.405
13.5101	833.408	42.4441
13.5142	823.725	42.4832
13.5172	835.752	42.5222
13.5199	831.956	42.5613
13.5229	825.943	42.6003
13.5261	836.201	42.6394
13.5297	828.199	42.6785
13.532	832.249	42.7175
13.5364	836.713	42.7566
13.5393	827.912	42.7957
13.5431	837.686	42.8347
13.5463	831.416	42.8738
13.55	831.406	42.9128
13.5525	838.172	42.9519
13.5558	827.552	42.991
13.559	833.408	43.03
13.5624	836.296	43.0691
13.5661	827.9751	43.1082
13.5691	835.189	43.1472
13.5719	832.518	43.1863
13.575	828.343	43.2253
13.5789	837.064	43.2644
13.582	825.789	43.3035
13.5841	833.442	43.3425
13.5887	833.141	43.3816
13.5916	826.267	43.4207
13.5951	836.014	43.4597
13.5984	827.458	43.4988
13.6022	828.911	43.5378
13.60474	837.69	43.5769
13.6083	823.656	43.616
13.6115	831.064	43.655
13.6153	836.363	43.6941
13.6181	821.915	43.7332
13.6209	834.626	43.7722
13.6238	832.069	43.8113
13.62722	824.573	43.8503
13.6314	837.2514	43.8894
13.6344	826.762	43.9285
13.63743	830.563	43.9675
13.6413	833.855	44.0066
13.6441	827.673	44.0457
13.6465	833.3255	44.0847
13.6515	830.84	44.1238
13.6531	829.813	44.1628
13.6572	836.993	44.2019
13.6597	828.253	44.241
13.663	831.684	44.28
13.6661	834.839	44.3191
13.6696	824.704	44.3582
13.6732	838.007	44.3972
13.677	831.636	44.4363
13.6793	827.917	44.4753
13.6836	836.077	44.5144
13.6863	826.273	44.5535
13.6896	832.533	44.5925
13.6918	830.731	44.6316
13.6961	825.358	44.6707
13.6993	833.9184	44.7097
13.7024	826.148	44.7488
13.7067	824.936	44.7878
13.709	835.08	44.8269
13.7122	822.262	44.866
13.7154	831.023	44.905
13.7188	833.356	44.9441
13.7228	820.384	44.9832
13.7255	835.533	45.0222
13.729	829.54	45.0613
13.7315	824.536	45.1003
13.7348	833.666	45.1394
13.7387	824.861	45.1785
13.7411	827.221	45.2175
13.74501	832.202	45.2566
13.7475	824.814	45.2957
13.75096	832.186	45.3347
13.7544	827.455	45.3738
13.758	826.899	45.4128
13.7607	834.343	45.4519
13.7639	824.151	45.491
13.7672	832.55	45.53
13.7696	832.912	45.5691
13.7741	824.243	45.6082
13.7768	834.581	45.6472
13.7808	829.053	45.6863
13.7833	826.43	45.7253
13.78646	834.288	45.7644
13.791	825.077	45.8035
13.7932	827.738	45.8425
13.7969	830.296	45.8816
13.8006	821.9621	45.9207
13.8032	830.886	45.9597
13.8066	824.449	45.9988
13.8102	823.091	46.0378
13.8136	833.017	46.0769
13.8163	818.832	46.116
13.8201	826.34	46.155
13.8233	828.133	46.1941
13.82555	817.748	46.2332
13.8286	830.906	46.2722
13.8327	825.49	46.3113
13.8359	818.765	46.3503
13.839	830.921	46.3894
13.8425	820.226	46.4285
13.8443	821.244	46.4675
13.8488	827.304	46.5066
13.8524	815.91	46.5457
13.8619	-49.8602	46.5847
13.8622	-42.7564	46.6238
13.8627	-48.902	46.6628
13.8661	-42.2334	46.7019
13.8691	-49.4913	46.741
13.8726	-42.6857	46.78
13.8755	-40.5726	46.8191
13.8797	-48.6268	46.8582
13.8824	-39.72337	46.8972
13.8851	-42.64246	46.9363
13.8883	-46.5451	46.9753
13.8919	-37.8221	47.0144
13.8947	-48.6383	47.0535
13.8991	-42.4454	47.0925
13.9011	-41.213	47.1316
13.9059	-49.3953	47.1707
13.9076	-40.61916	47.2097
13.91157	-47.2697	47.2488
13.9153	-47.0779	47.2878
13.9169	-40.5026	47.3269
13.9217	-50.9088	47.366
13.92399	-44.7974	47.405
13.9266	-41.5689	47.4441
13.9304	-52.1891	47.4832
13.9343	-39.87785	47.5222
13.9372	-46.1731	47.5613
13.9404	-50.3133	47.6003
13.944	-39.2968	47.6394
13.9473	-49.8329	47.6785
13.9509	-43.94656	47.7175
13.9533	-42.8733	47.7566
13.9565	-47.9384	47.7957
13.9595	-43.8576	47.8347
13.9637	-45.29829	47.8738
13.9669	-45.8106	47.9128
13.9693	-41.5208	47.9519
13.973	-49.548	47.991
13.977	-42.1691	48.03
13.9793	-44.044	48.0691
13.9839	-49.5851	48.1082
13.98577	-36.7855	48.1472
13.9903	-45.242	48.1863
13.9919	-47.0843	48.2253
13.9965	-38.9646	48.2644
13.999	-47.7255	48.3035
14.0022	-42.2838	48.3425
14.0059	-41.3908	48.3816
14.0088	-46.9695	48.4207
14.0121	-40.1017	48.4597
14.0149	-44.9685	48.4988
14.0187	-48.44368	48.5378
14.0225	-40.76503	48.5769
14.0254	-50.0832	48.616
14.0283	-42.3238	48.655
14.031	-42.914	48.6941
14.0348	-52.13134	48.7332
14.0382	-41.3858	48.7722
14.0421	-47.5099	48.8113
14.04398	-44.5353	48.8406