File: data/processed_data_files/tensile/0.254_solid_uprint_typei_090_r(2).dat
MTS793|BTW|ENU|1|2|.|/|:|1|0|0|A

Data Header:			0.254_solid_uprint_typei_090_r0			Time:	20.0227	s	4/15/2019 2:51:23 PM
Data Acquisition:	Timed
Station Name:	ft40.cfg
Test File Name:	monotonic_0.2540_typei_solid_090_uprint.tst
Displacement	Force	Running Time
mm	N	s
9.98231	-153.289	0.02734375
9.982832	-152.367	0.0957031
9.9906	-146.7001	0.1640625
9.99663	-141.396	0.232422
10.0027	-138.991	0.300781
10.007	-135.569	0.369141
10.0127	-127.55	0.4375
10.0187	-125.82	0.505859
10.0246	-123.848	0.574219
10.03047	-122.091	0.642578
10.03549	-122.0838	0.7109375
10.0416	-116.805	0.779297
10.0471	-111.076	0.847656
10.0531	-108.545	0.916016
10.0589	-105.017	0.984375
10.0651	-100.38	1.05273
10.0697	-91.8728	1.12109
10.0749	-89.2575	1.18945
10.0813	-86.9683	1.25781
10.0879	-82.6301	1.32617
10.0927	-80.9413	1.39453
10.0983	-79.937	1.46289
10.1038	-75.2164	1.53125
10.11044	-70.4911	1.59961
10.1159	-69.7006	1.66797
10.1217	-64.8652	1.73633
10.1268	-54.7071	1.80469
10.1331	-50.94886	1.87305
10.1386	-47.4976	1.94141
10.1438	-44.787	2.00977
10.1505	-42.2311	2.078125
10.1558	-40.5772	2.14648
10.1615	-36.84705	2.21484
10.1662	-32.2812	2.2832
10.1717	-31.9446	2.35156
10.1783	-28.1304	2.41992
10.1841	-18.3034	2.48828
10.1893	-13.8795	2.55664
10.195	-9.17038	2.625
10.2004	-5.897923	2.69336
10.207	-1.58092	2.76172
10.2119	-0.993915	2.83008
10.2197	3.43079	2.89844
10.2237	5.34158	2.9668
10.2289	6.635366	3.03516
10.2344	9.9693	3.10352
10.24053	20.3544	3.171875
10.2468	24.9969	3.24023
10.2531	27.9736	3.30859
10.2583	33.19997	3.37695
10.26482	37.9458	3.44531
10.2694	39.5757	3.51367
10.2755	42.70615	3.58203
10.2798	44.68848	3.65039
10.287	45.5183	3.71875
10.29149	48.9405	3.78711
10.2974	56.551	3.85547
10.3032	62.0835	3.92383
10.3095	65.9915	3.99219
10.3159	72.39299	4.06055
10.32006	78.1168	4.12891
10.3262	81.2514	4.19727
10.3318	85.699	4.265625
10.3373	86.2523	4.33398
10.3437	85.28	4.40234
10.34943	89.5416	4.4707
10.3546	96.9474	4.53906
10.36095	100.64	4.60742
10.3662	105.855	4.67578
10.3716	112.546	4.74414
10.37724	116.085	4.8125
10.384	123.166	4.88086
10.389	125.526	4.94922
10.3949	128.2032	5.01758
10.4006	125.987	5.08594
10.4063	129.4	5.1543
10.4125	136.504	5.22266
10.41675	138.802	5.29102
10.423	144	5.359375
10.4277	152.261	5.42773
10.4352	156.525	5.49609
10.44	161.439	5.56445
10.44762	165.16	5.63281
10.4515	169.029	5.70117
10.4576	167.5876	5.76953
10.4631	168.0556	5.83789
10.4688	175.691	5.90625
10.4744	179.353	5.97461
10.47969	180.57	6.04297
10.4863	188.093	6.11133
10.48921	194.135	6.17969
10.4959	199.733	6.24805
10.5031	205.004	6.31641
10.5085	208.493	6.38477
10.5138	207.477	6.453125
10.5204	209.489	6.52148
10.5257	215.6403	6.58984
10.5305	217.0639	6.6582
10.5363	219.302	6.72656
10.5427	225.579	6.79492
10.5496	234.26	6.86328
10.5529	239.557	6.93164
10.56	245.28	7
10.56584	249.288	7.06836
10.5718	247.4305	7.13672
10.5765	249.851	7.20508
10.5825	253.7475	7.27344
10.5883	257.653	7.3418
10.5945	259.032	7.41016
10.59949	264.02	7.47852
10.6057	270.966	7.546875
10.6104	277.926	7.61523
10.6167	283.356	7.68359
10.6222	288.371	7.75195
10.629	288.904	7.82031
10.634	290.879	7.88867
10.6396	295.191	7.95703
10.6458	296.1185	8.02539
10.6509	298.025	8.09375
10.65574	303.812	8.16211
10.6623	307.094	8.23047
10.66817	313.104	8.29883
10.6729	321.766	8.36719
10.6786	325.264	8.43555
10.6852	326.652	8.50391
10.6909	329.634	8.57227
10.696	334.761	8.640625
10.7017	335.678	8.70898
10.707	336.373	8.77734
10.7131	341.048	8.8457
10.7197	345.707	8.91406
10.7261	349.946	8.98242
10.7304	358.895	9.05078
10.7354	365.616	9.11914
10.7424	364.707	9.1875
10.7483	368.874	9.25586
10.7541	374.205	9.32422
10.7593	376.071	9.39258
10.7648	376.103	9.46094
10.771	380.134	9.5293
10.7762	383.285	9.59766
10.7825	386.9166	9.66602
10.7877	394.981	9.734375
10.7941	401.611	9.80273
10.7986	402.6217	9.87109
10.8048	406.5	9.93945
10.8107	413.779	10.0078
10.8171	415.629	10.0762
10.8213	412.902	10.1445
10.8286	418.5192	10.2129
10.8327	420.978	10.28125
10.839	423.888	10.3496
10.845	430.9501	10.418
10.8498	437.495	10.4863
10.8567	438.918	10.5547
10.8623	444.862	10.623
10.8682	449.7468	10.6914
10.8734	454.285	10.7598
10.8794	454.445	10.8281
10.8847	457.005	10.8965
10.8901	459.395	10.9648
10.8959	461.139	11.0332
10.9015	467.108	11.1016
10.9061	472.671	11.1699
10.9128	475.668	11.2383
10.918	480.378	11.3066
10.924	488.0285	11.375
10.9294	491.383	11.4434
10.9353	492.916	11.5117
10.9416	494.36	11.5801
10.94765	496.056	11.6484
10.9527	498.9873	11.7168
10.9597	503.94	11.7852
10.9636	506.821	11.8535
10.9693	512.097	11.9219
10.9755	514.1618	11.9902
10.9808	523.75	12.0586
10.9875	526.802	12.127
10.993	528.467	12.1953
10.999	533.331	12.2637
11.0046	535.26	12.332
11.0089	534.036	12.4004
11.0145	539.695	12.46875
11.0211	542.69	12.5371
11.0272	544.969	12.6055
11.033	548.908	12.6738
11.0388	558.5011	12.7422
11.0435	563.901	12.8105
11.0496	565.728	12.8789
11.0559	570.015	12.9473
11.0607	572.966	13.0156
11.0673	571.291	13.084
11.0722	575.156	13.1523
11.0783	580.445	13.2207
11.0838	580.83	13.2891
11.0886	582.795	13.3574
11.0949	592.346	13.4258
11.101	598.356	13.4941
11.1068	599.571	13.5625
11.112	603.591	13.6309
11.1179	608.248	13.6992
11.1243	609.311	13.7676
11.1296	609.758	13.8359
11.1353	613.223	13.9043
11.1405	614.799	13.9727
11.1474	615.257	14.041
11.1517	623.771	14.1094
11.1579	631.252	14.1777
11.1628	635.084	14.2461
11.1693	639.275	14.3145
11.1748	642.721	14.3828
11.1807	644.987	14.4512
11.186	647.122	14.5195
11.1926	650.112	14.5879
11.197	649.319	14.65625
11.20263	650.596	14.7246
11.2086	657.9	14.793
11.21571	663.568	14.8613
11.2205	665.6308	14.9297
11.2265	673.031	14.998
11.2322	676.711	15.0664
11.2377	678.69	15.1348
11.2449	683.012	15.2031
11.2496	683.9082	15.2715
11.2558	683.247	15.3398
11.2607	684.1153	15.4082
11.2654	689.426	15.4766
11.2716	694.2641	15.5449
11.2769	698.731	15.6133
11.2828	705.397	15.6816
11.2878	709.946	15.75
11.2942	711.1991	15.8184
11.30078	716.741	15.8867
11.306	718.872	15.9551
11.31193	717.154	16.0234
11.3175	716.737	16.0918
11.3226	723.648	16.1602
11.3288	727.456	16.2285
11.3345	730.903	16.2969
11.3402	735.75	16.3652
11.3461	743.39	16.4336
11.3517	744.167	16.502
11.35697	749.4267	16.5703
11.3636	752.279	16.6387
11.3687	749.884	16.707
11.37363	749.963	16.7754
11.3803	754.422	16.84375
11.3857	760.427	16.9121
11.391	759.044	16.9805
11.3978	766.044	17.0488
11.4033	773.398	17.1172
11.408	776.005	17.1855
11.4137	781.042	17.2539
11.421	785.109	17.3223
11.4257	785.464	17.3906
11.4315	782.714	17.459
11.4372	783.515	17.5273
11.443	788.956	17.5957
11.4487	791.637	17.6641
11.4539	793.724	17.7324
11.4612	802.755	17.8008
11.4664	806.232	17.8691
11.4716	809.708	17.9375
11.4761	813.301	18.0059
11.4819	814.085	18.0742
11.4884	813.84	18.1426
11.4946	813.894	18.2109
11.4996	818.667	18.2793
11.5048	819.955	18.3477
11.5119	823.802	18.416
11.5167	828.486	18.4844
11.5232	834.419	18.5527
11.5278	840.851	18.6211
11.5335	845.505	18.6895
11.5398	846.273	18.7578
11.5463	844.43	18.8262
11.5505	844.909	18.8945
11.5568	849.022	18.9629
11.56217	849.228	19.03125
11.5681	851.036	19.0996
11.5743	856.952	19.168
11.579	859.172	19.2363
11.58442	866.833	19.3047
11.5919	872.812	19.373
11.59665	874.798	19.4414
11.603	871.953	19.5098
11.6068	874.471	19.5781
11.6135	877.294	19.6465
11.61899	876.782	19.7148
11.62455	878.81	19.7832
11.6298	882.969	19.8516
11.6369	885.658	19.9199
11.6422	891.186	19.9883
11.6452	890.804	20.0176

Data Header:			0.254_solid_uprint_typei_090_r0			Time:	38.8447	s	4/15/2019 2:51:42 PM
Data Acquisition:	Timed
Station Name:	ft40.cfg
Test File Name:	monotonic_0.2540_typei_solid_090_uprint.tst
Displacement	Force	Running Time
mm	N	s
11.6456	887.459	20.0273
11.6505	889.529	20.0957
11.6561	895.1366	20.1641
11.6632	896.126	20.2324
11.6681	900.992	20.3008
11.6746	906.562	20.3691
11.6794	908.756	20.4375
11.685	915.335	20.5059
11.6911	915.369	20.5742
11.697	911.731	20.6426
11.703	911.578	20.7109
11.7079	915.165	20.7793
11.7128	917.255	20.8477
11.7199	918.693	20.916
11.725	924.38	20.9844
11.7295	928.15	21.0527
11.7367	931.197	21.1211
11.7403	936.6922	21.1895
11.7475	939.406	21.2578
11.7542	937.14	21.3262
11.7595	934.555	21.3945
11.765	937.62	21.4629
11.7706	938.911	21.53125
11.7771	938.213	21.5996
11.7824	943.258	21.668
11.7886	950.0603	21.7363
11.7925	950.837	21.8047
11.7986	955.869	21.873
11.8061	961.02	21.9414
11.8101	960.058	22.0098
11.8171	954.716	22.0781
11.8216	956.823	22.1465
11.82822	960.482	22.2148
11.83273	958.817	22.2832
11.8392	959.3479	22.3516
11.8456	963.14	22.4199
11.85143	967.986	22.4883
11.8558	971.211	22.5566
11.8617	975.349	22.625
11.8668	977.007	22.6934
11.8739	972.987	22.7617
11.8787	973.305	22.8301
11.8838	977.582	22.8984
11.8903	973.5014	22.9668
11.8953	974.0119	23.0352
11.9023	976.4176	23.1035
11.908	980.43	23.1719
11.91306	983.786	23.2402
11.9192	987.138	23.3086
11.9248	988.431	23.377
11.9308	985.802	23.4453
11.9359	986.3844	23.5137
11.9413	988.403	23.582
11.94753	983.655	23.6504
11.9531	985.507	23.71875
11.9588	984.4	23.7871
11.965	986.522	23.8555
11.9707	991.29	23.9238
11.9762	994.465	23.9922
11.9821	995.591	24.0605
11.9878	993.825	24.1289
11.9926	992.786	24.1973
11.999	994.767	24.2656
12.0045	990.581	24.334
12.0104	989.489	24.4023
12.0156	989.6377	24.4707
12.0219	989.337	24.5391
12.0271	993.187	24.6074
12.0334	996.431	24.6758
12.038	998.133	24.7441
12.0438	995.382	24.8125
12.05	994.991	24.8809
12.0552	997.333	24.9492
12.0617	993.159	25.0176
12.067	990.007	25.0859
12.0718	990.591	25.1543
12.0785	990.744	25.2227
12.0831	990.527	25.291
12.0902	994.1001	25.3594
12.0956	996.1524	25.4277
12.102	993.604	25.4961
12.1079	992.619	25.5645
12.1117	997.095	25.6328
12.1182	993.504	25.7012
12.1239	989.4574	25.7695
12.12939	988.368	25.8379
12.1349	987.976	25.90625
12.1407	987.703	25.9746
12.1475	987.2998	26.043
12.1536	990.671	26.1113
12.1591	990.611	26.1797
12.1636	988.861	26.248
12.1686	993.088	26.3164
12.1752	990.237	26.3848
12.1813	986.925	26.4531
12.1879	984.027	26.5215
12.1933	980.953	26.5898
12.1964	981.216	26.6582
12.20365	983.423	26.7266
12.2101	983.407	26.7949
12.2152	984.058	26.8633
12.22	982.662	26.9316
12.2265	986.574	27
12.23137	986.689	27.0684
12.2382	982.669	27.1367
12.2449	982.044	27.2051
12.2481	977.914	27.2734
12.2545	975.9057	27.3418
12.2614	978.585	27.4102
12.26607	978.0434	27.4785
12.2717	976.5238	27.5469
12.2778	977.423	27.6152
12.2832	981.939	27.6836
12.2886	980.464	27.752
12.2951	981.352	27.8203
12.3009	978.623	27.8887
12.3056	974.497	27.957
12.3118	972.387	28.0254
12.3176	972.162	28.09375
12.3229	974.979	28.1621
12.329	972.334	28.2305
12.3357	971.079	28.2988
12.3402	976.2019	28.3672
12.3457	977.984	28.4355
12.3512	974.113	28.5039
12.3566	974.377	28.5723
12.3633	974.2417	28.6406
12.3685	968.843	28.709
12.37463	967.783	28.7773
12.3797	968.02	28.8457
12.3854	966.499	28.9141
12.3913	964.532	28.9824
12.3964	969.004	29.0508
12.4027	972.785	29.1191
12.409	970.464	29.1875
12.4134	970.412	29.2559
12.4199	970.419	29.3242
12.4261	967.352	29.3926
12.4313	966.976	29.4609
12.436	965.547	29.5293
12.44214	962.136	29.5977
12.4483	962.567	29.666
12.454	963.25	29.7344
12.4595	969.7547	29.8027
12.4663	969.173	29.8711
12.4709	968.74	29.9395
12.4771	969.71	30.0078
12.4818	968.288	30.0762
12.4883	964.699	30.1445
12.49447	963.585	30.2129
12.4997	961.825	30.28125
12.50565	959.055	30.3496
12.5119	959.821	30.418
12.516	963.088	30.4863
12.5224	963.653	30.5547
12.5282	965.484	30.623
12.5335	968.644	30.6914
12.5402	965.618	30.7598
12.5454	966	30.8281
12.5522	964.546	30.8965
12.5579	961.309	30.9648
12.562	957.537	31.0332
12.56806	958.12	31.1016
12.5735	962.346	31.1699
12.5794	960.435	31.2383
12.585	963.173	31.3066
12.59157	965.965	31.375
12.5971	962.877	31.4434
12.6031	963.506	31.5117
12.6078	963.593	31.5801
12.6129	958.075	31.6484
12.6195	954.06	31.7168
12.6251	954.688	31.7852
12.6314	959.718	31.8535
12.6367	957.676	31.9219
12.64226	959.76	31.9902
12.6476	964.462	32.0586
12.6535	964.473	32.127
12.6598	964.0083	32.1953
12.6656	963.434	32.2637
12.6699	961.351	32.332
12.677	954.565	32.4004
12.6824	951.476	32.46875
12.68803	958.284	32.5371
12.6934	956.509	32.6055
12.6992	956.627	32.6738
12.7053	960.237	32.7422
12.7107	962.556	32.8105
12.7166	962.476	32.8789
12.72207	960.766	32.9473
12.7288	960.202	33.0156
12.7333	955.17	33.084
12.739	951.628	33.1523
12.7444	954.858	33.2207
12.7507	954.035	33.2891
12.7565	954.038	33.3574
12.763	958.39	33.4258
12.7678	959.478	33.4941
12.7733	962.028	33.5625
12.7793	960.932	33.6309
12.7854	962.207	33.6992
12.78982	955.081	33.7676
12.79686	952.7251	33.8359
12.8011	954.341	33.9043
12.8076	952.272	33.9727
12.8139	952.7442	34.041
12.8186	955.4198	34.1094
12.8251	956.525	34.1777
12.8301	958.431	34.2461
12.8355	959.528	34.3145
12.8413	959.537	34.3828
12.8479	956.1153	34.4512
12.85264	952.884	34.5195
12.8587	953.709	34.5879
12.8642	948.882	34.65625
12.8702	948.676	34.7246
12.8763	951.272	34.793
12.8809	951.551	34.8613
12.8873	953.705	34.9297
12.8926	956.205	34.998
12.89737	957.881	35.0664
12.9047	954.679	35.1348
12.9098	951.905	35.2031
12.9153	951.625	35.2715
12.9219	950.116	35.3398
12.9271	947.145	35.4082
12.9327	949.089	35.4766
12.9388	949.912	35.5449
12.9441	949.6557	35.6133
12.9514	953.642	35.6816
12.9556	956.349	35.75
12.9595	953.039	35.8184
12.9676	948.301	35.8867
12.9726	951.205	35.9551
12.9793	945.776	36.0234
12.98877	-43.3841	36.0918
12.9902	-46.5651	36.1602
12.9971	-43.5059	36.2285
13.00094	-42.1109	36.2969
13.0074	-39.4223	36.3652
13.0134	-35.648	36.4336
13.0193	-35.3367	36.502
13.0246	-40.5608	36.5703
13.0312	-38.1342	36.6387
13.0359	-38.9243	36.707
13.04113	-43.8646	36.7754
13.047	-45.7589	36.84375
13.0522	-44.4271	36.9121
13.0579	-43.4622	36.9805
13.064	-40.23103	37.0488
13.0706	-37.0518	37.1172
13.0745	-37.8669	37.1855
13.0817	-38.18396	37.2539
13.087	-37.94265	37.3223
13.0925	-38.6489	37.3906
13.0984	-42.8731	37.459
13.1038	-44.1237	37.5273
13.10909	-46.1126	37.5957
13.1159	-45.0514	37.6641
13.1209	-40.76041	37.7324
13.1266	-39.9265	37.8008
13.1319	-39.1	37.8691
13.138	-39.0801	37.9375
13.1443	-37.5711	38.0059
13.14959	-36.5312	38.0742
13.1559	-41.5391	38.1426
13.1608	-42.7386	38.2109
13.1665	-43.8624	38.2793
13.1727	-46.0015	38.3477
13.17825	-42.7412	38.416
13.184	-39.9147	38.4844
13.1891	-38.6663	38.5527
13.19572	-41.2633	38.6211
13.2007	-36.9636	38.6895
13.2062	-34.8386	38.7578
13.2124	-40.3476	38.8262
13.2126	-42.4296	38.8359