File: data/processed_data_files/tensile/0.254_solid_uprint_typei_4545_r(1).dat
MTS793|BTW|ENU|1|2|.|/|:|1|0|0|A

Data Header:			0.254_solid_uprint_typei_4545_r0			Time:	20.0222	s	4/14/2019 4:17:34 AM
Data Acquisition:	Timed
Station Name:	ft40.cfg
Test File Name:	monotonic_0.2540_typei_solid_4545_uprint.tst
Displacement	Force	Running Time
mm	N	s
9.95245	-123.844	0.0263672
9.95462	-112.811	0.0947266
9.96046	-105.348	0.163086
9.96716	-99.32	0.231445
9.9722	-97.5127	0.299805
9.97729	-102.995	0.368164
9.98298	-110.845	0.436523
9.98878	-111.921	0.504883
9.99441	-109.916	0.573242
10.0011	-109.117	0.641602
10.0061	-101.267	0.709961
10.0117	-89.3935	0.77832
10.0187	-78.903	0.84668
10.0243	-69.234	0.915039
10.0298	-63.5691	0.983398
10.0352	-66.5139	1.05176
10.0406	-70.0246	1.12012
10.0473	-70.6725	1.18848
10.05321	-73.23555	1.25684
10.0582	-75.0069	1.3252
10.0645	-69.1642	1.39355
10.0692	-63.267	1.46191
10.0751	-48.3145	1.53027
10.0805	-38.9686	1.59863
10.0865	-31.619	1.66699
10.0933	-29.3177	1.73535
10.0979	-30.3705	1.80371
10.104	-30.0373	1.87207
10.10976	-35.5108	1.94043
10.1162	-39.1651	2.00879
10.1212	-36.4759	2.07715
10.1276	-31.6857	2.14551
10.1337	-19.7151	2.21387
10.1389	-8.30949	2.28223
10.1441	0.354367	2.35059
10.1497	5.42282	2.41895
10.1558	8.865303	2.4873
10.1631	9.85071	2.55566
10.168	3.68538	2.62402
10.1736	1.38476	2.69238
10.1786	0.18668	2.76074
10.1855	1.35401	2.8291
10.1901	9.54496	2.89746
10.19635	22.5373	2.96582
10.2019	31.39653	3.03418
10.2087	37.9992	3.10254
10.21242	46.9602	3.1709
10.219	50.0193	3.23926
10.22463	45.432	3.30762
10.2303	44.03767	3.37598
10.23542	38.6457	3.44434
10.2415	37.0927	3.5127
10.2471	43.2756	3.58105
10.2538	54.12463	3.64941
10.25961	60.8386	3.71777
10.265	70.613	3.78613
10.2713	81.0484	3.85449
10.2765	87.91967	3.92285
10.28136	85.8737	3.99121
10.2873	82.7439	4.05957
10.2934	81.7444	4.12793
10.2993	75.1509	4.19629
10.3045	78.5369	4.26465
10.3111	84.31	4.33301
10.3161	90.7397	4.40137
10.3224	99.246	4.46973
10.3284	114.051	4.53809
10.333	124.832	4.60645
10.3388	125.697	4.6748
10.3444	126.244	4.74316
10.3504	123.239	4.81152
10.3561	115.758	4.87988
10.3613	115.0089	4.94824
10.3678	117.75	5.0166
10.3738	122.691	5.08496
10.3788	129.191	5.15332
10.38352	144.333	5.22168
10.3897	156.621	5.29004
10.3961	160.458	5.3584
10.402	165.559	5.42676
10.4077	164.125	5.49512
10.4133	158.2991	5.56348
10.4189	156.747	5.63184
10.4243	156.108	5.7002
10.43	156.615	5.76855
10.4351	160.084	5.83691
10.4416	174.865	5.90527
10.4468	188.9438	5.97363
10.4534	193.905	6.04199
10.4581	200.557	6.11035
10.4643	202.79	6.17871
10.47078	200.627	6.24707
10.4757	195.269	6.31543
10.4817	195.398	6.38379
10.487	191.586	6.45215
10.4926	193.615	6.52051
10.4987	207.312	6.58887
10.5042	218.321	6.65723
10.51	226.389	6.72559
10.5156	236.153	6.79395
10.5221	241.817	6.8623
10.52626	240.2	6.93066
10.5326	237.582	6.99902
10.5386	234.351	7.06738
10.5444	230.0515	7.13574
10.5495	229.748	7.2041
10.557	237.982	7.27246
10.5611	247.453	7.34082
10.5671	257.829	7.40918
10.5726	268.877	7.47754
10.5785	274.767	7.5459
10.5841	279.341	7.61426
10.59	279.793	7.68262
10.5953	273.122	7.75098
10.60121	268.553	7.81934
10.607	267.115	7.8877
10.6133	271.301	7.95605
10.618	278.087	8.02441
10.6235	287.841	8.09277
10.6299	298.793	8.16113
10.6352	308.4418	8.22949
10.6409	315.195	8.29785
10.6476	316.449	8.36621
10.6521	314.231	8.43457
10.6575	307.717	8.50293
10.6635	306.79	8.57129
10.6702	308.487	8.63965
10.6755	309.771	8.70801
10.6809	318.828	8.77637
10.6867	327.813	8.84473
10.69243	337.163	8.91309
10.69802	346.051	8.98145
10.7039	352.172	9.0498
10.7093	350.829	9.11816
10.715	347.696	9.18652
10.7211	347.534	9.25488
10.7265	348.15	9.32324
10.7332	345.981	9.3916
10.7382	349.238	9.45996
10.7435	356.773	9.52832
10.74985	365.184	9.59668
10.7555	375.954	9.66504
10.7605	386.88	9.7334
10.7662	387.713	9.80176
10.7723	384.948	9.87012
10.7785	386.934	9.93848
10.7841	386.569	10.0068
10.7894	381.922	10.0752
10.7953	384.125	10.1436
10.801	388.6142	10.2119
10.8067	394.166	10.2803
10.8117	406.5965	10.3486
10.8177	417.013	10.417
10.8236	420.743	10.4854
10.8292	421.245	10.5537
10.8357	425.4035	10.62207
10.8409	425.0809	10.69043
10.84697	418.021	10.7588
10.8531	420.443	10.8271
10.8582	423.0246	10.8955
10.863	425.024	10.9639
10.8701	434.139	11.0322
10.8754	446.354	11.1006
10.8803	452.144	11.1689
10.886	454.08	11.2373
10.8932	461.854	11.3057
10.8975	462.377	11.374
10.9029	457.372	11.4424
10.9098	455.534	11.5107
10.9142	456.281	11.5791
10.9206	457.819	11.6475
10.9268	462.612	11.71582
10.9323	474.308	11.78418
10.9376	479.742	11.8525
10.9434	486.313	11.9209
10.949	495.447	11.9893
10.95445	497.754	12.0576
10.9597	495.677	12.126
10.9671	493.079	12.1943
10.9723	492.725	12.2627
10.9785	490.93	12.3311
10.9833	494.8082	12.3994
10.9893	501.997	12.4678
10.99441	507.675	12.5361
10.9999	515.0929	12.6045
11.0061	526.616	12.6729
11.0113	532.251	12.7412
11.0176	531.628	12.80957
11.0227	529.02	12.87793
11.03	526.544	12.9463
11.0329	525.4812	13.0146
11.0398	525.971	13.083
11.0454	530.666	13.1514
11.0526	536.839	13.2197
11.05712	542.486	13.2881
11.06273	555.051	13.3564
11.0689	563.137	13.4248
11.0744	565.275	13.4932
11.07948	563.75	13.5615
11.0867	563.296	13.6299
11.091	559.802	13.6982
11.0967	557.582	13.7666
11.1031	558.445	13.835
11.1084	561.307	13.90332
11.1127	571.023	13.97168
11.1202	582.743	14.04
11.1258	591.116	14.1084
11.1308	596.086	14.1768
11.1367	597.338	14.2451
11.142	594.365	14.3135
11.149	592.213	14.3818
11.15423	589.648	14.4502
11.1596	589.246	14.5186
11.1662	590.235	14.5869
11.17	597.161	14.6553
11.17657	610.995	14.7236
11.1822	617.5448	14.792
11.1885	625.499	14.8604
11.1939	630.453	14.9287
11.1996	626.8205	14.99707
11.2051	627.082	15.06543
11.2107	625.243	15.1338
11.2164	618.49	15.2021
11.2227	618.091	15.2705
11.2286	625.431	15.3389
11.2333	637.224	15.4072
11.24022	644.558	15.4756
11.245	654.129	15.5439
11.2512	661.126	15.6123
11.2573	660.109	15.6807
11.2624	660.802	15.749
11.2675	657.759	15.8174
11.2733	651.706	15.8857
11.2788	648.085	15.9541
11.28485	653.355	16.0225
11.2896	662.069	16.09082
11.2961	670.345	16.15918
11.3021	680.601	16.2275
11.3078	688.866	16.2959
11.3134	689.1	16.3643
11.3198	692.449	16.4326
11.3254	689.69	16.501
11.3307	682.059	16.5693
11.3363	677.277	16.6377
11.3413	681.222	16.7061
11.3469	689.011	16.7744
11.3533	693.573	16.8428
11.3586	705.549	16.9111
11.3641	715.398	16.9795
11.3703	718.678	17.0479
11.3758	721.762	17.1162
11.3819	722.0824	17.18457
11.3865	714.137	17.25293
11.3932	708.208	17.3213
11.399	711.453	17.3896
11.405	714.091	17.458
11.4103	717.835	17.5264
11.4154	729.71	17.5947
11.4215	739.183	17.6631
11.4277	746.213	17.7314
11.4337	749.269	17.7998
11.4386	752.512	17.8682
11.4432	743.998	17.9365
11.4499	738.055	18.0049
11.4559	739.722	18.0732
11.4619	739.867	18.1416
11.4673	742.234	18.21
11.473	750.779	18.27832
11.4789	761.92	18.34668
11.48385	770.535	18.415
11.4911	777.616	18.4834
11.4954	780.884	18.5518
11.50177	776.058	18.6201
11.5072	768.514	18.6885
11.5134	768.526	18.7568
11.5182	765.501	18.8252
11.5236	766.474	18.8936
11.53	773.425	18.9619
11.5356	783.631	19.0303
11.5418	794.728	19.0986
11.5463	801.448	19.167
11.5526	805.0639	19.2354
11.5576	802.8811	19.3037
11.5635	800.542	19.37207
11.57	797.669	19.44043
11.5748	792.971	19.5088
11.5805	791.077	19.5771
11.5866	795.88	19.6455
11.5925	803.718	19.7139
11.59885	814.534	19.7822
11.6045	822.169	19.8506
11.609	829.656	19.9189
11.6152	829.04	19.9873
11.6177	809.567	20.0166

Data Header:			0.254_solid_uprint_typei_4545_r0			Time:	40.0222	s	4/14/2019 4:17:54 AM
Data Acquisition:	Timed
Station Name:	ft40.cfg
Test File Name:	monotonic_0.2540_typei_solid_4545_uprint.tst
Displacement	Force	Running Time
mm	N	s
11.6191	812.889	20.0264
11.624	824.7998	20.0947
11.6295	834.934	20.1631
11.6353	840.323	20.2314
11.6418	840.848	20.2998
11.647	841.008	20.3682
11.6523	836.659	20.4365
11.6594	828.657	20.5049
11.6642	828.009	20.5732
11.6692	830.865	20.6416
11.6757	833.59	20.71
11.68	843.4989	20.77832
11.68755	853.107	20.84668
11.6921	859.651	20.915
11.6986	865.623	20.9834
11.7041	867.784	21.0518
11.7081	861.1947	21.1201
11.71511	853.0882	21.1885
11.7209	855.141	21.2568
11.7264	854.6582	21.3252
11.733	854.291	21.3936
11.7384	859.969	21.4619
11.7438	872.143	21.5303
11.7506	879.052	21.5986
11.7553	887.361	21.667
11.7603	889.263	21.7354
11.7659	885.335	21.8037
11.772	880.717	21.87207
11.7772	879.985	21.94043
11.7833	876.535	22.0088
11.78961	873.935	22.0771
11.7938	879.4256	22.1455
11.8006	886.995	22.2139
11.8068	896.366	22.2822
11.8118	904.792	22.3506
11.818	908.411	22.4189
11.8215	908.482	22.4873
11.8281	904.958	22.5557
11.8355	902.9231	22.624
11.8403	898.711	22.6924
11.845	895.38	22.7607
11.8514	898.012	22.8291
11.8575	901.884	22.8975
11.8636	910.455	22.96582
11.8689	918.891	23.03418
11.8748	923.772	23.1025
11.8802	927.157	23.1709
11.88559	926.946	23.2393
11.8926	925.199	23.3076
11.897	920.216	23.376
11.9027	915.6889	23.4443
11.9095	915.059	23.5127
11.9147	917.176	23.5811
11.9198	924.728	23.6494
11.9254	932.63	23.7178
11.9315	939.7417	23.7861
11.9364	941.163	23.8545
11.9427	946.469	23.9229
11.948	944.9928	23.9912
11.9543	939.352	24.05957
11.9594	935.649	24.12793
11.9661	933.7757	24.1963
11.9722	931.057	24.2646
11.9763	936.7746	24.333
11.9824	946.024	24.4014
11.9881	949.506	24.4697
11.9941	955.141	24.5381
11.9997	961.488	24.6064
12.0061	964.42	24.6748
12.0109	958.025	24.7432
12.0176	954.373	24.8115
12.0221	951.014	24.8799
12.0275	945.292	24.9482
12.0339	948.672	25.0166
12.0401	956.443	25.085
12.0456	959.555	25.15332
12.0516	965.598	25.22168
12.0574	974.4906	25.29
12.0629	979.901	25.3584
12.0677	973.884	25.4268
12.0738	973.001	25.4951
12.08026	967.958	25.5635
12.08589	960.882	25.6318
12.0917	961.955	25.7002
12.097	965.818	25.7686
12.103	968.933	25.8369
12.1073	973.19	25.9053
12.1132	986.239	25.9736
12.1211	991.383	26.042
12.1258	988.944	26.1104
12.1316	987.262	26.1787
12.13661	983.771	26.24707
12.1422	976.075	26.31543
12.14757	972.434	26.3838
12.154	975.204	26.4521
12.1594	974.998	26.5205
12.1651	979.914	26.5889
12.1693	991.404	26.6572
12.1765	998.892	26.7256
12.1832	998.965	26.7939
12.1888	998.998	26.8623
12.1925	997.148	26.9307
12.1997	989.4411	26.999
12.2042	985.829	27.0674
12.21051	984.578	27.1357
12.2156	982.603	27.2041
12.2219	983.036	27.2725
12.2271	995.63	27.34082
12.2343	1004.799	27.40918
12.2394	1007.53	27.4775
12.2448	1009.62	27.5459
12.2506	1008.48	27.6143
12.257	1002.42	27.6826
12.2625	995.84	27.751
12.2672	993.382	27.8193
12.274	987.37	27.8877
12.2796	988.898	27.9561
12.2842	999.494	28.0244
12.2901	1004.61	28.0928
12.2961	1011.44	28.1611
12.3008	1015.8	28.2295
12.3079	1015.1	28.2979
12.3135	1013.81	28.3662
12.3182	1008.28	28.43457
12.323	1002.03	28.50293
12.3306	995.413	28.5713
12.336	994.904	28.6396
12.3413	1000.007	28.708
12.347	1006.83	28.7764
12.3534	1013.329	28.8447
12.3587	1019.37	28.9131
12.3641	1021.97	28.9814
12.3708	1022.05	29.0498
12.3759	1016.06	29.1182
12.3814	1012.98	29.1865
12.3874	1001.6	29.2549
12.3927	999.114	29.3232
12.3977	1003.78	29.3916
12.4045	1007.88	29.46
12.4099	1015.07	29.52832
12.4167	1022.43	29.59668
12.4205	1024.89	29.665
12.4262	1027.167	29.7334
12.43263	1026.18	29.8018
12.4384	1016.95	29.8701
12.44362	1008.75	29.9385
12.4494	1005.94	30.0068
12.4554	1006.97	30.0752
12.4611	1008.41	30.1436
12.4675	1013.49	30.2119
12.472	1021.729	30.2803
12.47762	1024.85	30.3486
12.4838	1030.63	30.417
12.48993	1031.17	30.4854
12.4948	1024.24	30.5537
12.5007	1016.05	30.62207
12.5074	1012.14	30.69043
12.5115	1012.67	30.7588
12.5183	1009.25	30.8271
12.52358	1012.96	30.8955
12.5303	1021.23	30.9639
12.5351	1024.35	31.0322
12.5406	1030.1	31.1006
12.5457	1035.47	31.1689
12.5521	1031.31	31.2373
12.5579	1020.49	31.3057
12.5628	1017.28	31.374
12.5688	1017.386	31.4424
12.5752	1011.56	31.5107
12.5803	1012.18	31.5791
12.587	1019.9	31.6475
12.5907	1022.56	31.71582
12.5976	1029.57	31.78418
12.6033	1035.09	31.8525
12.6091	1035.16	31.9209
12.6149	1028.45	31.9893
12.6203	1023	32.0576
12.627	1022.04	32.126
12.63157	1015.229	32.1943
12.638	1012.85	32.2627
12.6438	1016.92	32.3311
12.648	1020.25	32.3994
12.6541	1027.78	32.4678
12.6614	1035.19	32.5361
12.6661	1037.56	32.6045
12.6716	1031.08	32.6729
12.6769	1029.02	32.7412
12.6821	1025.82	32.80957
12.6887	1019.88	32.87793
12.6948	1015.449	32.9463
12.7005	1017.15	33.0146
12.706	1019.92	33.083
12.7114	1023.72	33.1514
12.7169	1030.41	33.2197
12.7232	1034.36	33.2881
12.7271	1035.54	33.3564
12.7343	1032.85	33.4248
12.739	1031.65	33.4932
12.7458	1022.92	33.5615
12.7524	1017.35	33.6299
12.75684	1016.72	33.6982
12.763	1019.178	33.7666
12.7677	1023.8	33.835
12.775	1027.99	33.90332
12.7804	1032.913	33.97168
12.7855	1035.89	34.04
12.792	1037.24	34.1084
12.7965	1035.57	34.1768
12.8025	1029.25	34.2451
12.8075	1022.74	34.3135
12.8136	1019.24	34.3818
12.8205	1017.87	34.4502
12.8245	1019.77	34.5186
12.8303	1025.23	34.5869
12.8368	1030.11	34.6553
12.8434	1032.01	34.7236
12.8481	1036.7	34.792
12.8528	1039.28	34.8604
12.8592	1033.6	34.9287
12.8646	1028.68	34.99707
12.87052	1022.09	35.06543
12.87669	1018.23	35.1338
12.882	1018.92	35.2021
12.8878	1022.24	35.2705
12.8937	1025.296	35.3389
12.8997	1030.48	35.4072
12.9047	1037.69	35.4756
12.9107	1039.46	35.5439
12.9163	1035.71	35.6123
12.922	1032.02	35.6807
12.9276	1024.99	35.749
12.9331	1019.25	35.8174
12.939	1018.17	35.8857
12.9445	1020.34	35.9541
12.9501	1020.46	36.0225
12.9579	1026.24	36.09082
12.9623	1034.65	36.15918
12.9674	1039.13	36.2275
12.9744	1037.43	36.2959
12.9799	1036.96	36.3643
12.9839	1031.21	36.4326
12.991	1023.18	36.501
12.9954	1019.97	36.5693
13.0015	1020.28	36.6377
13.0064	1017.72	36.7061
13.0142	1020.63	36.7744
13.0191	1031.44	36.8428
13.0252	1038.11	36.9111
13.0296	1038.08	36.9795
13.03533	1039.57	37.0479
13.0423	1035.75	37.1162
13.0473	1027.16	37.18457
13.0529	1022.53	37.25293
13.0581	1021.77	37.3213
13.0655	1016.7	37.3896
13.07075	1018.7	37.458
13.0756	1028.39	37.5264
13.082	1033.83	37.5947
13.0876	1035.93	37.6631
13.0941	1039.371	37.7314
13.0981	1037.6	37.7998
13.1049	1031.8	37.8682
13.1104	1027.03	37.9365
13.1153	1023.07	38.0049
13.12223	1017.41	38.0732
13.1275	1015.34	38.1416
13.1332	1023.772	38.21
13.1393	1032.07	38.27832
13.1434	1035.28	38.34668
13.1498	1039.83	38.415
13.156	1039.531	38.4834
13.1615	1036.64	38.5518
13.1668	1029.82	38.6201
13.1719	1025.23	38.6885
13.1776	1018.73	38.7568
13.1834	1015.64	38.8252
13.1899	1019.57	38.8936
13.1955	1027.77	38.9619
13.2013	1031.67	39.0303
13.2069	1036.12	39.0986
13.2119	1039.79	39.167
13.2184	1038.2	39.2354
13.2245	1033.9	39.3037
13.23	1028.18	39.37207
13.2356	1020.21	39.44043
13.2407	1016.8	39.5088
13.2466	1018.69	39.5771
13.25287	1023.39	39.6455
13.2574	1026.16	39.7139
13.2639	1034.51	39.7822
13.2692	1038.1	39.8506
13.2753	1039.84	39.9189
13.281	1036.09	39.9873
13.2831	1021.55	40.0166

Data Header:			0.254_solid_uprint_typei_4545_r0			Time:	60.0215	s	4/14/2019 4:18:14 AM
Data Acquisition:	Timed
Station Name:	ft40.cfg
Test File Name:	monotonic_0.2540_typei_solid_4545_uprint.tst
Displacement	Force	Running Time
mm	N	s
13.2837	1024.51	40.0264
13.2893	1037.23	40.0947
13.2954	1038.62	40.1631
13.3017	1037.37	40.2314
13.3068	1036.95	40.2998
13.312	1030.94	40.3682
13.3191	1026.269	40.4365
13.32345	1020.75	40.5049
13.3299	1018.47	40.5732
13.33616	1016.99	40.6416
13.3412	1020.67	40.71
13.3466	1030.53	40.77832
13.3522	1035.28	40.84668
13.3579	1037.95	40.915
13.3633	1038.49	40.9834
13.3694	1034.89	41.0518
13.3748	1029.82	41.1201
13.3807	1023.54	41.1885
13.3866	1019.84	41.2568
13.3916	1016.678	41.3252
13.3969	1016.99	41.3936
13.404	1028.1	41.4619
13.409	1032.21	41.5303
13.4154	1035.86	41.5986
13.4213	1039.19	41.667
13.4263	1036.37	41.7354
13.4323	1032.28	41.8037
13.4381	1028.12	41.87207
13.4431	1021.01	41.94043
13.4484	1016.57	42.0088
13.4546	1016.99	42.0771
13.4606	1022.981	42.1455
13.4669	1027.55	42.2139
13.4717	1033.81	42.2822
13.4779	1039.12	42.3506
13.48301	1036.37	42.4189
13.4878	1037.91	42.4873
13.4945	1032.64	42.5557
13.4992	1023.174	42.624
13.506	1017.99	42.6924
13.5125	1017.07	42.7607
13.5179	1020.34	42.8291
13.5229	1024.44	42.8975
13.5294	1029.63	42.96582
13.5348	1035.54	43.03418
13.54	1036.42	43.1025
13.5461	1036.44	43.1709
13.5528	1035.5	43.2393
13.558	1027.16	43.3076
13.5633	1019.32	43.376
13.5682	1017.781	43.4443
13.5747	1018.72	43.5127
13.5793	1019.76	43.5811
13.5867	1024.84	43.6494
13.5908	1031.661	43.7178
13.5969	1034.05	43.7861
13.6039	1038.15	43.8545
13.6084	1038.06	43.9229
13.6147	1032.22	43.9912
13.6203	1022.33	44.05957
13.6261	1017.98	44.12793
13.6317	1019.88	44.1963
13.6365	1017.62	44.2646
13.643	1022.436	44.333
13.6488	1029.44	44.4014
13.655	1032.844	44.4697
13.6604	1036.56	44.5381
13.6664	1038.81	44.6064
13.6714	1036.37	44.6748
13.6758	1026.32	44.7432
13.68406	1021.79	44.8115
13.6889	1020.952	44.8799
13.69426	1017.69	44.9482
13.6992	1020.41	45.0166
13.70621	1024.21	45.085
13.7115	1028.97	45.15332
13.71721	1034.44	45.22168
13.7224	1038.96	45.29
13.72815	1037.25	45.3584
13.7337	1029.978	45.4268
13.7391	1023.34	45.4951
13.7441	1023.39	45.5635
13.7508	1018.79	45.6318
13.7562	1015.52	45.7002
13.7619	1022.56	45.7686
13.7689	1025.663	45.8369
13.7725	1030.61	45.9053
13.7794	1036.26	45.9736
13.78547	1036.81	46.042
13.7902	1033.88	46.1104
13.79682	1028.67	46.1787
13.8024	1025.23	46.24707
13.8093	1021.74	46.31543
13.8136	1017.97	46.3838
13.8197	1018.8	46.4521
13.8254	1021.09	46.5205
13.8313	1028.39	46.5889
13.8372	1031.91	46.6572
13.842	1034.11	46.7256
13.8474	1034.04	46.7939
13.8542	1031.12	46.8623
13.8593	1029.7	46.9307
[...]
15.7983	1019.83	70.2119
15.806	1025.76	70.2803
15.81	1027.03	70.3486
15.8159	1030.39	70.417
15.8216	1029.35	70.4854
15.8279	1022.124	70.5537
15.8328	1013.44	70.62207
15.84	1010.53	70.69043
15.8451	1011.54	70.7588
15.8494	1011.47	70.8271
15.85626	1012.87	70.8955
15.8629	1021.37	70.9639
15.86801	1023.25	71.0322
15.8732	1027.3	71.1006
15.8783	1029.77	71.1689
15.88427	1023.88	71.2373
15.8896	1015.77	71.3057
15.8959	1011.56	71.374
15.9012	1013.6	71.4424
15.9078	1009.907	71.5107
15.9136	1010.77	71.5791
15.9177	1019.52	71.6475
15.924	1020.02	71.71582
15.9303	1024.49	71.78418
15.9359	1028.92	71.8525
15.9413	1026.3	71.9209
15.9463	1018.61	71.9893
15.955	1014.16	72.0576
15.9578	1013.36	72.126
15.9645	1008.68	72.1943
15.97003	1009.42	72.2627
15.9762	1012.51	72.3311
15.982	1017.79	72.3994
15.9868	1022.76	72.4678
15.9928	1026.79	72.5361
15.99833	1028.35	72.6045
16.0044	1021.58	72.6729
16.0098	1017.66	72.7412
16.0159	1017.72	72.80957
16.0216	1011.25	72.87793
16.0274	1007.74	72.9463
16.0336	1012.26	73.0146
16.0388	1014.55	73.083
16.0445	1018.55	73.1514
16.0494	1024.671	73.2197
16.0554	1025.39	73.2881
16.061	1022.61	73.3564
16.0672	1019.63	73.4248
16.0728	1017.54	73.4932
16.0786	1010.44	73.5615
16.0835	1009.071	73.6299
16.0892	1008.638	73.6982
16.0949	1010.99	73.7666
16.1006	1015.49	73.835
16.106	1020.33	73.90332
16.1126	1025.39	73.97168
16.118	1023.11	74.04
16.1239	1022.1	74.1084
16.1284	1021.61	74.1768
16.136	1016.23	74.2451
16.1406	1011.66	74.3135
16.1478	1008.11	74.3818
16.1516	1008.3	74.4502
16.1583	1011.05	74.5186
16.1639	1017.91	74.5869
16.16968	1019.83	74.6553
16.1761	1022.23	74.7236
16.1807	1023.09	74.792
16.1878	1024.22	74.8604
16.1915	1017.13	74.9287
16.1976	1013.69	74.99707
16.2034	1010.2	75.06543
16.21	1006.84	75.1338
16.2152	1007.5	75.2021
16.2204	1015.47	75.2705
16.227	1017.7	75.3389
16.2318	1018.14	75.4072
16.23777	1023.79	75.4756
16.24375	1025.97	75.5439
16.2498	1020.27	75.6123
16.25491	1016.94	75.6807
16.2614	1012.86	75.749
16.26615	1006.855	75.8174
16.2718	1007.59	75.8857
16.2776	1010.44	75.9541
16.2835	1015.16	76.0225
16.28932	1015.79	76.09082
16.2941	1019.87	76.15918
16.3006	1025.24	76.2275
16.3048	1021.02	76.2959
16.3125	1018.79	76.3643
16.3191	1015.23	76.4326
16.3244	1009.34	76.501
16.3284	1004.81	76.5693
16.3352	1007.26	76.6377
16.34095	1011.33	76.7061
16.3463	1010.64	76.7744
16.3517	1017.272	76.8428
16.3581	1024.77	76.9111
16.3637	1022.89	76.9795
16.369	1019.489	77.0479
16.3745	1017.457	77.1162
16.3808	1010.679	77.18457
16.3856	1006.575	77.25293
16.3918	1006.62	77.3213
16.3977	1008.61	77.3896
16.4029	1008.03	77.458
16.4073	1012.55	77.5264
16.4141	1020.98	77.5947
16.4202	1023.89	77.6631
16.4256	1019.72	77.7314
16.432	1020.16	77.7998
16.4376	1013.9	77.8682
16.4434	1009.41	77.9365
16.449	1006.07	78.0049
16.4545	1006.67	78.0732
16.4605	1005.24	78.1416
16.466	1007.995	78.21
16.47151	1018.96	78.27832
16.47714	1021.94	78.34668
16.4826	1020.71	78.415
16.4884	1018.57	78.4834
16.4958	1016.84	78.5518
16.4993	1011.84	78.6201
16.5061	1009.32	78.6885
16.5111	1005.7	78.7568
16.5158	1002.82	78.8252
16.5214	1005.4	78.8936
16.5286	1012.76	78.9619
16.5344	1017.62	79.0303
16.5391	1019.46	79.0986
16.5449	1021.59	79.167
16.5526	1019.42	79.2354
16.557	1015.84	79.3037
16.5628	1009.63	79.37207
16.5681	1004.87	79.44043
16.5734	1002.3	79.5088
16.58036	1003.67	79.5771
16.5854	1008.88	79.6455
16.5917	1014.48	79.7139
16.5962	1018.46	79.7822
16.60223	1019.795	79.8506
16.6085	1019.58	79.9189
16.6135	1016.24	79.9873
16.61797	1006.82	80.0166

Data Header:			0.254_solid_uprint_typei_4545_r0			Time:	85.9255	s	4/14/2019 4:18:40 AM
Data Acquisition:	Timed
Station Name:	ft40.cfg
Test File Name:	monotonic_0.2540_typei_solid_4545_uprint.tst
Displacement	Force	Running Time
mm	N	s
16.6164	1009.5	80.0264
16.6197	1013.86	80.0557
16.6212	1010.47	80.085
16.62496	1015.07	80.1143
16.6267	1001.93	80.1436
16.6289	1018.37	80.1729
16.6317	1003.99	80.2021
16.6336	1019.4	80.2314
16.63711	1000.528	80.2607
16.6392	1022.567	80.29
16.6404	1001.53	80.3193
16.6447	1017.88	80.3486
16.6462	1000.53	80.37793
16.649	1017.77	80.4072
16.6509	1005.59	80.4365
16.6537	1012.62	80.46582
16.6561	1009.4	80.4951
16.6581	1009.83	80.5244
16.6606	1011.11	80.5537
16.6634	1005.99	80.583
16.6656	1017.42	80.6123
16.6685	1002.97	80.6416
16.6712	1018.03	80.6709
16.6727	1001.485	80.7002
16.6769	1019.72	80.7295
16.6783	1000.32	80.7588
16.6812	1019.66	80.7881
16.6836	1003.76	80.8174
16.6852	1019.74	80.84668
16.6882	1000.22	80.876
16.6902	1014.99	80.9053
16.6917	1007.84	80.93457
16.6954	1012.02	80.9639
16.6975	1008.18	80.9932
16.7006	1009.39	81.0225
16.7031	1013.98	81.0518
16.7053	1002.74	81.0811
16.7069	1012.23	81.1104
16.7092	1003.79	81.1396
16.7129	1017.98	81.1689
16.7148	1001.88	81.1982
16.7182	1014.51	81.2275
16.7207	1000.83	81.2568
16.722	1016.8	81.2861
16.7244	1001.54	81.31543
16.7278	1012.52	81.3447
16.7305	1006.83	81.374
16.7322	1011.44	81.40332
16.7332	1003.83	81.4326
16.737	1005.67	81.4619
16.7379	1011.25	81.4912
16.7423	1005.36	81.5205
16.744	1013.33	81.5498
16.7467	1000.89	81.5791
16.7487	1015.27	81.6084
16.7509	999.091	81.6377
16.7545	1018.18	81.667
16.75687	1000.56	81.6963
16.7582	1016.06	81.7256
16.75992	999.654	81.7549
16.7628	1013.19	81.78418
16.7654	1000.66	81.8135
16.7678	1010.04	81.8428
16.7707	1004.35	81.87207
16.7747	1009.33	81.9014
16.776	1008.259	81.9307
16.7786	999.796	81.96
16.7812	1009.3	81.9893
16.7816	1001.21	82.0186
16.7856	1013.993	82.0479
16.7872	994.648	82.0771
16.7904	1013.91	82.1064
16.7923	996.1311	82.1357
16.7947	1012.63	82.165
16.7971	992.751	82.1943
16.7997	1014.28	82.2236
16.8027	997.06	82.25293
16.80423	1008.64	82.2822
16.8079	994.421	82.3115
16.8101	1006.11	82.34082
16.8111	1000.41	82.3701
16.8139	1001.09	82.3994
16.818	1002.05	82.4287
16.8196	1000.93	82.458
16.822	1006.03	82.4873
16.8245	991.782	82.5166
16.8275	1007.09	82.5459
16.8303	992.735	82.5752
16.8312	1007.5	82.6045
16.8337	989.442	82.6338
16.8375	1006.56	82.6631
16.83853	987.931	82.6924
16.8417	1005.4	82.72168
16.8442	992.049	82.751
16.8472	1003.42	82.7803
16.8497	990.4798	82.80957
16.8517	993.044	82.8389
16.8544	991.741	82.8682
16.8564	988.916	82.8975
16.8585	987.911	82.9268
16.867	-100.442	82.9561
16.8688	-31.9515	82.9854
16.8685	-45.4893	83.0146
16.8711	-33.2969	83.0439
16.8724	-49.6559	83.0732
16.8745	-29.3227	83.1025
16.8763	-49.1753	83.1318
16.8796	-35.1935	83.1611
16.8816	-46.5909	83.19043
16.884	-34.2462	83.2197
16.8861	-45.4128	83.249
16.8897	-41.1506	83.27832
16.8906	-38.9048	83.3076
16.8942	-41.3631	83.3369
16.8968	-38.8355	83.3662
16.8982	-48.3131	83.3955
16.901	-34.7824	83.4248
16.90332	-48.6976	83.4541
16.9055	-32.6308	83.4834
16.9076	-49.08569	83.5127
16.9099	-30.0658	83.542
16.9143	-50.5881	83.5713
16.9151	-33.1607	83.6006
16.9179	-48.1043	83.6299
16.91967	-33.0307	83.65918
16.9232	-44.4223	83.6885
16.9244	-37.96159	83.7178
16.92746	-42.58707	83.74707
16.9294	-41.79287	83.7764
16.933	-39.9339	83.8057
16.935	-42.8951	83.835
16.93751	-34.1724	83.8643
16.9398	-46.5114	83.8936
16.9415	-33.9594	83.9229
16.9454	-49.1421	83.9521
16.9474	-32.0136	83.9814
16.9492	-50.4564	84.0107
16.9516	-31.28694	84.04
16.954	-47.7752	84.0693
16.9563	-34.3553	84.0986
16.9595	-51.4585	84.12793
16.9618	-35.0273	84.1572
16.9645	-45.1594	84.1865
16.9663	-36.6069	84.21582
16.9685	-44.1555	84.2451
16.9718	-41.38076	84.2744
16.9742	-38.5147	84.3037
16.9757	-45.7345	84.333
16.97901	-38.7909	84.3623
16.9804	-45.3469	84.3916
16.984	-33.5536	84.4209
16.9854	-48.6833	84.4502
16.9886	-35.6413	84.4795
16.9904	-48.9325	84.5088
16.9926	-33.38343	84.5381
16.9959	-47.8903	84.5674
16.99828	-34.3844	84.59668
16.9994	-45.0036	84.626
17.003	-36.2293	84.6553
17.0056	-45.0364	84.68457
17.00799	-40.2309	84.7139
17.0102	-39.9962	84.7432
17.0121	-41.5596	84.7725
17.0158	-37.4988	84.8018
17.0181	-45.1758	84.8311
17.0195	-35.0815	84.8604
17.0222	-47.2522	84.8896
17.0244	-32.4529	84.9189
17.028	-45.9562	84.9482
17.0296	-33.8181	84.9775
17.0321	-49.8032	85.0068
17.0346	-33.3812	85.0361
17.0372	-45.0906	85.06543
17.0386	-36.2004	85.0947
17.0415	-42.0859	85.124
17.044	-37.4489	85.15332
17.0472	-41.49947	85.1826
17.0503	-43.6567	85.2119
17.0516	-37.0553	85.2412
17.0527	-43.557	85.2705
17.0561	-36.7166	85.2998
17.0584	-49.8788	85.3291
17.0613	-32.4577	85.3584
17.0645	-47.9362	85.3877
17.067	-34.5171	85.417
17.0688	-51.7935	85.4463
17.0722	-30.6172	85.4756
17.0737	-49.0854	85.5049
17.0756	-36.471	85.53418
17.0781	-49.3026	85.5635
17.0806	-35.2758	85.5928
17.084	-43.6802	85.62207
17.0862	-38.8297	85.6514
17.0876	-40.4771	85.6807
17.0908	-42.9685	85.71
17.0929	-38.6181	85.7393
17.09527	-47.58	85.7686
17.0977	-33.0001	85.7979
17.101	-48.1977	85.8271
17.103	-32.10144	85.8564
17.10557	-49.1272	85.8857
17.1086	-30.9592	85.915