File: data/processed_data_files/tensile/0.254_hd_dimension_typei_4545_r(6).dat
MTS793|BTW|ENU|1|2|.|/|:|1|0|0|A

Data Header:			0.254_hd_dimension_typei_4545_r0			Time:	20.0205	s	4/15/2019 3:20:39 PM
Data Acquisition:	Timed
Station Name:	ft40.cfg
Test File Name:	monotonic_0.2540_typei_hd_4545_dimension.tst
Displacement	Force	Running Time
mm	N	s
9.98139	-173.083	0.0229492
9.98428	-171.79	0.0913086
9.98965	-168.839	0.159668
9.99438	-168.094	0.228027
10.0018	-167.551	0.296387
10.0076	-160.701	0.364746
10.0127	-151.68	0.433105
10.0177	-148.416	0.501465
10.0239	-145.464	0.569824
10.029	-142.289	0.638184
10.0347	-145.13	0.706543
10.041	-144.462	0.774902
10.0467	-142.53	0.843262
10.0526	-141.052	0.911621
10.0581	-142.109	0.97998
10.0638	-136.424	1.04834
10.0691	-124.005	1.1167
10.0751	-123.274	1.18506
10.08054	-119.594	1.253418
10.0873	-110.967	1.32178
10.0915	-112.699	1.39014
10.09833	-113.457	1.4585
10.1032	-111.636	1.52686
10.1095	-111.045	1.59521
10.1139	-115.244	1.66357
10.119	-107.851	1.73193
10.1262	-99.1202	1.800293
10.1321	-96.0486	1.86865
10.1378	-89.8745	1.93701
10.1439	-82.796	2.00537
10.1482	-81.4515	2.07373
10.1537	-80.3774	2.14209
10.1598	-78.6679	2.21045
10.1668	-81.0744	2.27881
10.1715	-83.7982	2.347168
10.1769	-77.9494	2.41553
10.1828	-69.3955	2.48389
10.1879	-65.716	2.55225
10.1945	-61.5618	2.62061
10.1999	-53.0052	2.68896
10.2061	-51.3085	2.75732
10.2105	-48.3608	2.82568
10.21741	-48.3581	2.894043
10.2227	-48.5823	2.9624
10.2294	-48.8906	3.03076
10.2345	-46.4157	3.09912
10.2394	-42.0069	3.16748
10.2451	-39.2146	3.23584
10.2516	-31.7112	3.3042
10.2563	-23.9299	3.37256
10.2632	-20.1632	3.440918
10.2685	-16.477	3.50928
10.274	-13.0378	3.57764
10.28036	-16.1981	3.646
10.2852	-16.7206	3.71436
10.2907	-14.84	3.78271
10.2964	-10.5503	3.85107
10.3024	-7.11758	3.91943
10.3073	-3.378346	3.987793
10.3127	4.24312	4.05615
10.3198	11.3324	4.12451
10.3252	17.9074	4.19287
10.3313	18.4229	4.26123
10.3364	18.3796	4.32959
10.3424	18.6613	4.39795
10.3477	20.9511	4.46631
10.353	20.6886	4.534668
10.3591	21.8437	4.60303
10.3645	28.6819	4.67139
10.3706	32.864	4.73975
10.3759	42.8036	4.80811
10.382	49.5458	4.87646
10.3876	50.8618	4.94482
10.3938	51.6438	5.01318
10.3981	52.9951	5.081543
10.4049	55.9881	5.1499
10.40984	52.9748	5.21826
10.4159	55.6989	5.28662
10.4227	61.3472	5.35498
10.4269	64.2054	5.42334
10.43357	73.3963	5.4917
10.4396	81.0449	5.56006
10.4447	83.9049	5.628418
10.4511	83.178	5.69678
10.4558	88.3697	5.76514
10.4617	90.6231	5.8335
10.4676	87.2683	5.90186
10.4746	88.5424	5.97021
10.4794	93.6538	6.03857
10.4844	95.8974	6.10693
10.4901	101.8653	6.175293
10.4951	110.826	6.24365
10.5015	115.569	6.31201
10.508	116.433	6.38037
10.5124	123.266	6.44873
10.5191	125.947	6.51709
10.5245	122.507	6.58545
10.5301	122.621	6.65381
10.5363	126.415	6.722168
10.54177	127.1488	6.79053
10.5476	132.304	6.85889
10.5532	140.5882	6.92725
10.5585	146.97	6.99561
10.5642	146.614	7.06396
10.57	154.885	7.13232
10.5762	158.297	7.20068
10.58173	157.62	7.269043
10.5873	156.048	7.3374
10.5923	158.236	7.40576
10.5986	160.797	7.47412
10.6042	165.871	7.54248
10.6104	169.178	7.61084
10.6159	173.869	7.6792
10.6209	178.259	7.74756
10.6273	186.32	7.815918
10.6326	190.789	7.88428
10.638	190.747	7.95264
10.6439	191.079	8.021
10.65	190.687	8.08936
10.6557	192.734	8.15771
10.6607	197.086	8.22607
10.66661	199.265	8.29443
10.6724	202.632	8.362793
10.6786	209.462	8.43115
10.6835	218.435	8.49951
10.6897	222.353	8.56787
10.6953	223.2547	8.63623
10.7006	226.007	8.70459
10.70729	222.914	8.77295
10.7136	228.13	8.84131
10.7183	228.795	8.909668
10.7235	230.667	8.97803
10.7295	233.833	9.04639
10.7343	239.381	9.11475
10.742	248.5047	9.18311
10.7456	253.973	9.25146
10.7529	257.251	9.31982
10.7588	261.4415	9.38818
10.76386	257.518	9.456543
10.7692	261.302	9.5249
10.7741	261.943	9.59326
10.7808	261.074	9.66162
10.7864	262.722	9.72998
10.7922	270.435	9.79834
10.797	278.645	9.8667
10.8032	281.972	9.93506
10.8088	288.964	10.0034
10.8151	294.362	10.0718
10.8198	292.921	10.1401
10.8267	295.4	10.2085
10.8312	295.1528	10.2769
10.8384	292.202	10.3452
10.84258	292.288	10.4136
10.8489	299.6459	10.4819
10.8546	305.908	10.5503
10.8609	310.716	10.6187
10.8654	318.681	10.687
10.8711	324.8	10.7554
10.87771	325.006	10.82373
10.88205	328.155	10.89209
10.8901	329.243	10.9604
10.8952	325.3476	11.0288
10.8998	323.219	11.0972
10.9063	329.669	11.1655
10.9116	334.295	11.2339
10.9176	337.1207	11.3022
10.92314	346.234	11.3706
10.9294	352.802	11.439
10.9344	357.891	11.5073
10.9407	361.589	11.5757
10.9451	363.961	11.644
10.9515	359.451	11.7124
10.9573	356.218	11.7808
10.96268	361.648	11.8491
10.9683	362.895	11.91748
10.9745	367.083	11.98584
10.98	374.664	12.0542
10.9864	383.731	12.1226
10.9912	389.249	12.1909
10.9968	392.618	12.2593
11.00284	394.3497	12.3276
11.0085	392.154	12.396
11.0142	389.961	12.4644
11.02	391.802	12.5327
11.0253	393.033	12.6011
11.0309	395.068	12.6694
11.0372	402.258	12.7378
11.0422	409.275	12.8062
11.0482	417.361	12.8745
11.0549	422.5462	12.9429
11.0595	423.792	13.01123
11.0655	422.693	13.07959
11.07221	421.239	13.1479
11.0776	423.178	13.2163
11.08188	423.125	13.2847
11.0879	425.834	13.353
11.0936	429.95	13.4214
11.1	435.912	13.4897
11.105	445.117	13.5581
11.1114	451.143	13.6265
11.1168	453.485	13.6948
11.1218	452.541	13.7632
11.1279	455.208	13.8315
11.1342	454.4736	13.8999
11.1398	452.697	13.9683
11.1455	454.373	14.0366
11.1511	457.916	14.10498
11.1568	461.242	14.17334
11.162	470.508	14.2417
11.1675	479.186	14.3101
11.1738	481.294	14.3784
11.179	483.339	14.4468
11.1849	488.426	14.5151
11.191	485.247	14.5835
11.197	483.273	14.6519
11.2024	484.425	14.7202
11.2074	485.969	14.7886
11.2133	488.714	14.8569
11.2183	496.429	14.9253
11.2257	506.045	14.9937
11.2299	506.297	15.062
11.2368	510.631	15.1304
11.24231	517.07	15.19873
11.2476	519.088	15.26709
11.2536	512.582	15.3354
11.25858	514.798	15.4038
11.2641	515.898	15.4722
11.2696	516.196	15.5405
11.276	522.633	15.6089
11.2813	529.882	15.6772
11.2874	532.632	15.7456
11.2931	538.227	15.814
11.2991	546.149	15.8823
11.3049	546.019	15.9507
11.3102	545.4339	16.019
11.3149	543.895	16.0874
11.3219	543.941	16.1558
11.3269	545.21	16.2241
11.3332	547.318	16.29248
11.3384	553.792	16.36084
11.3435	557.7	16.4292
11.35	563.143	16.4976
11.3557	571.108	16.5659
11.3613	575.025	16.6343
11.3678	573.541	16.7026
11.373	574.581	16.771
11.3784	572.4491	16.8394
11.3852	572.922	16.9077
11.3908	574.977	16.9761
11.3948	579.952	17.0444
11.4023	580.314	17.1128
11.4078	588.475	17.1812
11.413	595.923	17.2495
11.4183	600.368	17.3179
11.4237	602.815	17.38623
11.4298	604.044	17.45459
11.4351	601.196	17.5229
11.44122	601.548	17.5913
11.4479	602.481	17.6597
11.4525	603.841	17.728
11.4575	606.271	17.7964
11.464	612.67	17.8647
11.4697	620.123	17.9331
11.4758	623.633	18.0015
11.4809	629.607	18.0698
11.4864	630.158	18.1382
11.4926	629.598	18.2065
11.4985	630.523	18.2749
11.5043	629.77	18.3433
11.5091	627.827	18.4116
11.5164	628.305	18.47998
11.5215	638.4942	18.54834
11.5264	644.65	18.6167
11.5325	647.371	18.6851
11.5376	654.161	18.7534
11.54272	656.989	18.8218
11.5497	657.125	18.8901
11.5552	657.37	18.9585
11.5603	656.0462	19.0269
11.5667	652.9231	19.0952
11.57202	652.936	19.1636
11.5769	661.518	19.2319
11.582	663.38	19.3003
11.5896	668.405	19.3687
11.5947	678.464	19.437
11.6012	680.95	19.5054
11.6065	684.198	19.57373
11.6129	683.259	19.64209
11.6184	684.72	19.7104
11.6231	677.921	19.7788
11.6305	677.989	19.8472
11.635	683.926	19.9155
11.6407	686.94	19.9839
11.6425	698.207	20.0132

Data Header:			0.254_hd_dimension_typei_4545_r0			Time:	40.0181	s	4/15/2019 3:20:59 PM
Data Acquisition:	Timed
Station Name:	ft40.cfg
Test File Name:	monotonic_0.2540_typei_hd_4545_dimension.tst
Displacement	Force	Running Time
mm	N	s
11.6439	692.937	20.0229
11.6493	692.627	20.0913
11.6545	692.26	20.1597
11.66103	690.968	20.228
11.666	693.432	20.2964
11.6719	703.58	20.3647
11.67715	710.066	20.4331
11.6842	714.181	20.5015
11.6902	717.576	20.5698
11.6944	719.178	20.6382
11.7013	719.214	20.7065
11.7057	717.231	20.7749
11.7115	716.915	20.8433
11.7181	713.267	20.9116
11.7247	716.461	20.97998
11.729	724.267	21.04834
11.7352	729.43	21.1167
11.7403	732.191	21.1851
11.7465	740.547	21.2534
11.7525	743.878	21.3218
11.7575	742.426	21.3901
11.7643	742.847	21.4585
11.7691	741.493	21.5269
11.7747	738.133	21.5952
11.7808	736.417	21.6636
11.7851	744.48	21.7319
11.793	749.404	21.8003
11.7972	751.748	21.8687
11.8032	760.554	21.937
11.81	765.4295	22.0054
11.8137	764.85	22.07373
11.8205	766.093	22.14209
11.8264	766.191	22.2104
11.8313	758.304	22.2788
11.8374	758.568	22.3472
11.8426	763.834	22.4155
11.8486	765.313	22.4839
11.8544	771.097	22.5522
11.8606	777.274	22.6206
11.8665	783.821	22.689
11.8716	785.269	22.7573
11.8772	788.307	22.8257
11.8829	788.5318	22.894
11.8905	781.817	22.9624
11.8944	780.187	23.0308
11.9002	784.002	23.0991
11.9061	784.717	23.16748
11.9118	787.986	23.23584
11.9177	794.298	23.3042
11.9228	799.958	23.3726
11.92881	806.229	23.4409
11.935	808.67	23.5093
11.9403	806.798	23.5776
11.9462	802.887	23.646
11.9512	800.3728	23.7144
11.9567	802.074	23.7827
11.963	802.125	23.8511
11.96837	805.255	23.9194
11.97464	809.198	23.9878
11.9804	815.983	24.0562
11.9856	822.59	24.1245
11.9905	825.675	24.1929
11.9975	824.596	24.26123
12.0031	821.6413	24.32959
12.0086	821.824	24.3979
12.0144	821.37	24.4663
12.02	818.249	24.5347
12.0249	820.8147	24.603
12.0316	822.839	24.6714
12.0376	827.101	24.7397
12.04149	835.951	24.8081
12.0488	840.513	24.8765
12.0534	838.112	24.9448
12.0586	839.73	25.0132
12.0651	841.314	25.0815
12.0713	838.399	25.1499
12.0768	833.7724	25.2183
12.0822	836.366	25.2866
12.0878	838.123	25.35498
12.0943	839.235	25.42334
12.1002	848.268	25.4917
12.1054	853.004	25.5601
12.1097	851.811	25.6284
12.1159	853.886	25.6968
12.1226	857.98	25.7651
12.1276	854.728	25.8335
12.1337	847.606	25.9019
12.1404	849.941	25.9702
12.1456	849.324	26.0386
12.15145	851.308	26.1069
12.1562	858.029	26.1753
12.1621	863.755	26.2437
12.168	864.2	26.312
12.1741	866.908	26.3804
12.1783	871.663	26.44873
12.1851	868.248	26.51709
12.1913	864.62	26.5854
12.1965	863.487	26.6538
12.203	863.743	26.7222
12.208	863.918	26.7905
12.2128	866.361	26.8589
12.2199	872.2251	26.9272
12.2249	874.774	26.9956
12.2304	876.788	27.064
12.2369	882.495	27.1323
12.2424	882.353	27.2007
12.2478	877.277	27.269
12.2526	875.815	27.3374
12.2593	873.545	27.4058
12.2647	872.629	27.4741
12.2716	875.5531	27.54248
12.27546	878.839	27.61084
12.2821	880.038	27.6792
12.2868	884.728	27.7476
12.2932	891.595	27.8159
12.2985	891.6731	27.8843
12.304	889.509	27.9526
12.3097	887.608	28.021
12.3154	883.851	28.0894
12.3223	883.558	28.1577
12.32698	883.943	28.2261
12.3319	884.99	28.2944
12.3389	885.78	28.3628
12.3446	893.204	28.4312
12.35	896.594	28.4995
12.3564	898.6366	28.5679
12.361	897.712	28.63623
12.3675	897.574	28.70459
12.3736	893.122	28.7729
12.3794	894.244	28.8413
12.384	890.81	28.9097
12.39	891.08	28.978
12.3962	890.705	29.0464
12.4002	897.588	29.1147
12.4082	903.596	29.1831
12.4127	903.283	29.2515
12.4184	906.413	29.3198
12.424	904.623	29.3882
12.4291	903.337	29.4565
12.4363	902.132	29.5249
12.4405	900.978	29.5933
12.4475	895.124	29.6616
12.4529	894.654	29.72998
12.4586	901.444	29.79834
12.4643	904.931	29.8667
12.46977	907.777	29.9351
12.4758	912.21	30.0034
12.4812	913.053	30.0718
12.4875	908.479	30.1401
12.4918	909.593	30.2085
12.4981	907.487	30.2769
12.5038	901.682	30.3452
12.5107	898.627	30.4136
12.51675	905.7049	30.4819
12.5205	908.396	30.5503
12.5268	909.772	30.6187
12.5313	914.192	30.687
12.5374	917.402	30.7554
12.5443	916.03	30.82373
12.5499	915.684	30.89209
12.5552	915.238	30.9604
12.56058	907.283	31.0288
12.5667	902.939	31.0972
12.572	909.54	31.1655
12.5781	910.196	31.2339
12.5841	911.27	31.3022
12.5897	916.976	31.3706
12.59537	919.704	31.439
12.6002	921.867	31.5073
12.6064	921.771	31.5757
12.6123	919.873	31.644
12.6171	913.573	31.7124
12.6238	908.469	31.7808
12.6291	911.194	31.8491
12.6345	912.177	31.91748
12.6406	914.444	31.98584
12.6458	917.149	32.0542
12.6523	922.597	32.1226
12.6583	924.429	32.1909
12.6644	923.518	32.2593
12.6695	922.946	32.3276
12.6752	917.781	32.396
12.6798	915.014	32.4644
12.6866	915.891	32.5327
12.692	915.221	32.6011
12.69783	916.7525	32.6694
12.7028	918.234	32.7378
12.7092	922.629	32.8062
12.7142	928.885	32.8745
12.7205	928.4574	32.9429
12.7254	927.643	33.01123
12.7317	922.892	33.07959
12.7372	921.788	33.1479
12.744	920.255	33.2163
12.7484	916.995	33.2847
12.7542	916.91	33.353
12.7606	918.187	33.4214
12.7665	921.055	33.4897
12.7716	928.441	33.5581
12.7776	931.858	33.6265
12.7834	929.562	33.6948
12.7887	927.282	33.7632
12.7959	926.915	33.8315
12.7998	923.838	33.8999
12.8065	919.65	33.9683
12.8121	920.516	34.0366
12.81701	919.531	34.10498
12.8233	920.601	34.17334
12.8283	928.918	34.2417
12.8343	931.962	34.3101
12.8397	929.066	34.3784
12.846	929.733	34.4468
12.8518	932.512	34.5151
12.8572	928.177	34.5835
12.863	922.207	34.6519
12.8683	923.43	34.7202
12.8746	923.982	34.7886
12.8807	921.962	34.8569
12.8852	926.465	34.9253
12.8917	931.7	34.9937
12.8965	930.4165	35.062
12.9033	932.5946	35.1304
12.9083	936.232	35.19873
12.9145	932.427	35.26709
12.9202	925.886	35.3354
12.9252	924.875	35.4038
12.9315	923.385	35.4722
12.9362	922.743	35.5405
12.9436	925.6424	35.6089
12.9489	929.2	35.6772
12.9536	929.406	35.7456
12.9603	932.304	35.814
12.9652	938.33	35.8823
12.9711	935.785	35.9507
12.9772	930.482	36.019
12.983	929.326	36.0874
12.9882	926.884	36.1558
12.9944	925.3681	36.2241
12.9995	925.715	36.29248
13.005	929.146	36.36084
13.0108	929.287	36.4292
13.0171	932.17	36.4976
13.0228	938.6651	36.5659
13.0271	938.658	36.6343
13.0347	936.224	36.7026
13.0396	933.572	36.771
13.0446	927.081	36.8394
13.0518	926.278	36.9077
13.0565	928.131	36.9761
13.0631	927.117	37.0444
13.068	927.787	37.1128
13.07358	930.859	37.1812
13.0793	936.4184	37.2495
13.0855	936.862	37.3179
13.0909	937.225	37.38623
13.0954	934.729	37.45459
13.10229	929.848	37.5229
13.1075	930.114	37.5913
13.1125	927.107	37.6597
13.1191	924.502	37.728
13.1247	926.148	37.7964
13.1309	932.465	37.8647
13.1348	935.326	37.9331
13.1422	937.495	38.0015
13.1477	939.6095	38.0698
13.1532	938.208	38.1382
13.1581	933.178	38.2065
13.1643	932.6145	38.2749
13.1708	928.699	38.3433
13.1754	925.111	38.4116
13.1815	924.828	38.47998
13.1867	932.965	38.54834
13.194	933.915	38.6167
13.1992	935.15	38.6851
13.2052	939.769	38.7534
13.2098	939.66	38.8218
13.2166	936.493	38.8901
13.2218	936.566	38.9585
13.2275	933.658	39.0269
13.2334	926.037	39.0952
13.2387	924.981	39.1636
13.2446	931.849	39.2319
13.2511	932.085	39.3003
13.2561	934.375	39.3687
13.2613	938.534	39.437
13.267	940.778	39.5054
13.2726	938.588	39.57373
13.279	937.277	39.64209
13.2835	936.052	39.7104
13.2893	928.159	39.7788
13.2966	925.499	39.8472
13.3008	929.708	39.9155
13.306	932.373	39.9839
13.3102	938.666	40.0132

Data Header:			0.254_hd_dimension_typei_4545_r0			Time:	60.0195	s	4/15/2019 3:21:19 PM
Data Acquisition:	Timed
Station Name:	ft40.cfg
Test File Name:	monotonic_0.2540_typei_hd_4545_dimension.tst
Displacement	Force	Running Time
mm	N	s
13.3109	932.386	40.0229
13.3158	931.726	40.0913
13.3224	931.7876	40.1597
13.3277	928.339	40.228
13.3318	928.285	40.2964
13.3387	934.0553	40.3647
13.3444	938.4184	40.4331
13.3501	940.61	40.5015
13.3557	941.973	40.5698
13.3624	940.231	40.6382
13.3671	935.932	40.7065
13.37341	934.877	40.7749
13.3797	932.084	40.8433
13.3843	927.102	40.9116
13.3893	926.036	40.97998
13.3953	932.807	41.04834
13.4017	936.057	41.1167
13.4073	936.182	41.1851
13.4134	942.596	41.2534
13.4188	942.721	41.3218
13.4244	938.339	41.3901
13.4295	937.94	41.4585
13.4356	935.577	41.5269
13.441	928.628	41.5952
13.4469	926.529	41.6636
13.4544	931.839	41.7319
13.4591	934.965	41.8003
13.4646	935.947	41.8687
13.4696	941.284	41.937
13.4756	942.5827	42.0054
13.4819	942.953	42.07373
13.4867	937.836	42.14209
13.4926	937.605	42.2104
13.4988	931.541	42.2788
13.5053	926.651	42.3472
13.5107	932.411	42.4155
13.51451	932.332	42.4839
13.5216	933.263	42.5522
13.5268	938.354	42.6206
13.5319	941.975	42.689
13.5376	943.9491	42.7573
13.54346	942.1087	42.8257
13.5501	937.7439	42.894
13.5565	932.6571	42.9624
13.5611	929.932	43.0308
13.56613	931.316	43.0991
13.5722	930.343	43.16748
13.579	933.028	43.23584
13.5835	935.478	43.3042
13.5889	940.12	43.3726
13.5956	942.696	43.4409
13.6017	945.109	43.5093
13.6069	941.116	43.5776
13.6134	935.26	43.646
13.6173	934.035	43.7144
13.6229	932.011	43.7827
13.6288	930.026	43.8511
13.6358	931.413	43.9194
13.6406	933.47	43.9878
13.6462	935.758	44.0562
13.6523	943.703	44.1245
13.658	944.957	44.1929
13.6642	942.6571	44.26123
13.6693	937.959	44.32959
13.6739	935.3844	44.3979
13.6807	933.5321	44.4663
13.6861	929.241	44.5347
13.6927	930.482	44.603
13.6988	933.067	44.6714
13.7027	933.611	44.7397
13.7082	938.644	44.8081
13.7145	944.206	44.8765
13.7211	943.026	44.9448
13.7262	937.97	45.0132
13.73267	938.765	45.0815
13.7375	936.819	45.1499
13.7435	929.86	45.2183
13.7498	929.471	45.2866
13.7555	932.354	45.35498
13.7602	932.357	45.42334
13.7658	937.716	45.4917
13.77207	943.866	45.5601
13.7773	941.856	45.6284
13.7835	941.036	45.6968
13.78894	943.43	45.7651
13.7942	937.774	45.8335
13.8005	932.284	45.9019
13.8061	930.234	45.9702
13.8113	932.212	46.0386
13.8173	931.367	46.1069
13.8226	936.629	46.1753
13.8291	941.707	46.2437
13.8354	939.955	46.312
13.8397	940.093	46.3804
13.847	944.6015	46.44873
13.8505	942.538	46.51709
13.8574	934.151	46.5854
13.8641	933.0036	46.6538
13.8694	931.7757	46.7222
13.8748	930.379	46.7905
13.8796	932.847	46.8589
13.8862	936.724	46.9272
13.89106	938.855	46.9956
13.8968	939.672	47.064
13.9035	943.255	47.1323
13.9086	941.848	47.2007
13.9149	939.035	47.269
13.9203	934.733	47.3374
13.9257	933.042	47.4058
13.9308	931.986	47.4741
13.9374	931.657	47.54248
13.94201	935.841	47.61084
13.948	935.418	47.6792
13.9539	939.7796	47.7476
13.9602	944.178	47.8159
13.966	943.754	47.8843
13.9717	940.9	47.9526
13.97549	938.2655	48.021
13.9828	932.853	48.0894
13.9871	932.048	48.1577
13.9939	931.553	48.2261
13.999	930.046	48.2944
14.0062	933.068	48.3628
14.0107	936.71	48.4312
14.017	943.839	48.4995
14.0217	942.8429	48.5679
14.0289	943.084	48.63623
14.0341	940.915	48.70459
14.039	935.666	48.7729
14.0444	932.904	48.8413
14.0506	932.455	48.9097
14.057	931.011	48.978
14.0634	930.206	49.0464
14.0683	935.619	49.1147
14.0739	941.206	49.1831
14.0786	940.582	49.2515
14.0843	942.219	49.3198
14.0915	943.928	49.3882
14.0967	938.346	49.4565
14.1031	934.752	49.5249
14.108	933.819	49.5933
14.1136	931.226	49.6616
14.1193	927.0824	49.72998
14.1262	932.3197	49.79834
14.1303	939.7066	49.8667
14.1358	938.294	49.9351
14.142	941.772	50.0034
14.1479	943.304	50.0718
14.1532	938.908	50.1401
14.1588	938.542	50.2085
14.1645	936.158	50.2769
14.171	930.724	50.3452
14.1752	926.1568	50.4136
14.18168	931.153	50.4819
14.1864	936.197	50.5503
14.1938	937.349	50.6187
14.19961	940.334	50.687
14.2049	943.347	50.7554
14.2088	942.115	50.82373
14.2157	940.553	50.89209
14.2218	938.178	50.9604
14.2271	932.953	51.0288
14.2328	927.511	51.0972
14.2392	930.717	51.1655
14.244	935.056	51.2339
14.2497	934.588	51.3022
14.2561	940.155	51.3706
14.2618	942.461	51.439
14.2677	943.909	51.5073
14.2728	943.175	51.5757
14.27803	941.097	51.644
14.2846	935.317	51.7124
14.2912	929.115	51.7808
14.2969	929.344	51.8491
14.3015	929.274	51.91748
14.3076	931.754	51.98584
14.313	936.7	52.0542
14.3191	939.886	52.1226
14.3243	943.087	52.1909
14.3299	944.259	52.2593
14.3357	942.022	52.3276
14.3413	936.1972	52.396
14.347	932.213	52.4644
14.3526	932.566	52.5327
14.3583	929.128	52.6011
14.3641	928.294	52.6694
14.3685	934.313	52.7378
14.3767	937.444	52.8062
14.3805	940.325	52.8745
14.3868	944.26	52.9429
14.392	944.072	53.01123
14.3982	935.413	53.07959
14.4049	933.55	53.1479
14.40956	932.938	53.2163
14.4146	928.215	53.2847
14.4217	927.948	53.353
14.4271	931.751	53.4214
14.432	934.777	53.4897
14.43802	937.138	53.5581
14.445	942.296	53.6265
14.4492	944.998	53.6948
14.4564	939.816	53.7632
14.4604	933.7832	53.8315
14.4665	935.206	53.8999
14.4724	931.463	53.9683
14.4782	926.291	54.0366
14.4841	929.552	54.10498
14.4893	930.664	54.17334
14.4965	934.544	54.2417
14.5012	939.332	54.3101
14.5065	942.28	54.3784
14.5128	940.416	54.4468
14.5182	935.436	54.5151
14.5245	934.536	54.5835
14.5295	931.646	54.6519
14.5351	926.547	54.7202
14.5411	926.909	54.7886
14.5472	928.424	54.8569
14.552	931.067	54.9253
14.5581	934.605	54.9937
14.56328	939.6239	55.062
14.5692	939.626	55.1304
14.5751	936.468	55.19873
14.5811	936.467	55.26709
14.58609	933.344	55.3354
14.5917	928.181	55.4038
14.599	924.309	55.4722
14.60386	925.94	55.5405
14.6087	930.289	55.6089
14.6156	931.928	55.6772
14.6205	935.121	55.7456
14.6254	936.615	55.814
14.6323	937.78	55.8823
14.6378	937.871	55.9507
14.6439	933.436	56.019
14.6494	929.578	56.0874
14.65428	926.842	56.1558
14.6605	924.252	56.2241
14.6671	926.219	56.29248
14.6721	930.757	56.36084
14.677	932.143	56.4292
14.6825	932.938	56.4976
14.6908	936.171	56.5659
14.693	939.953	56.6343
14.7004	936.151	56.7026
14.70672	931.214	56.771
14.7113	929.433	56.8394
14.7177	924.745	56.9077
14.7232	924.518	56.9761
14.7289	927.939	57.0444
14.734	928.034	57.1128
14.741	930.587	57.1812
14.7454	934.211	57.2495
14.7509	939.856	57.3179
14.7573	936.262	57.38623
14.76242	931.8139	57.45459
14.7676	932.513	57.5229
14.7742	925.944	57.5913
14.7799	924.301	57.6597
14.7852	926.617	57.728
14.7915	927.964	57.7964
14.7969	925.304	57.8647
14.8029	930.763	57.9331
14.809	939.006	58.0015
14.8139	935.211	58.0698
14.8206	934.243	58.1382
14.826	933.537	58.2065
14.8326	928.6156	58.2749
14.8368	926.696	58.3433
14.8437	923.774	58.4116
14.8488	924.122	58.47998
14.8547	923.908	58.54834
14.8606	926.287	58.6167
14.8661	935.202	58.6851
14.8714	936.9176	58.7534
14.87611	933.211	58.8218
14.8817	932.831	58.8901
14.8891	929.925	58.9585
14.8935	926.996	59.0269
14.8997	923.8786	59.0952
14.9047	922.583	59.1636
14.9107	922.215	59.2319
14.916	924.917	59.3003
14.9222	931.097	59.3687
14.9292	933.741	59.437
14.9333	934.6806	59.5054
14.9392	935.486	59.57373
14.945	932.684	59.64209
14.9511	929.636	59.7104
14.9563	926.022	59.7788
14.96251	921.437	59.8472
14.9682	920.513	59.9155
14.9742	923.214	59.9839
14.976	935.993	60.0132

Data Header:			0.254_hd_dimension_typei_4545_r0			Time:	62.9624	s	4/15/2019 3:21:22 PM
Data Acquisition:	Timed
Station Name:	ft40.cfg
Test File Name:	monotonic_0.2540_typei_hd_4545_dimension.tst
Displacement	Force	Running Time
mm	N	s
14.9763	926.425	60.0229
14.97858	919.689	60.04248
14.98101	935.74	60.062
14.9802	929.453	60.0815
14.9835	919.368	60.1011
14.9855	929.5993	60.1206
14.9872	933.035	60.1401
14.9888	920.003	60.1597
14.9902	927.266	60.1792
14.9922	930.206	60.19873
14.9936	922.455	60.2183
14.9948	925.751	60.2378
14.9973	935.357	60.2573
14.9978	923.781	60.2769
14.9994	924.93	60.2964
15.0015	931.694	60.3159
15.003	927.831	60.3354
15.0033	919.22	60.35498
15.0059	931.652	60.3745
15.0083	930.499	60.394
15.0103	921.496	60.4136
15.0125	926.029	60.4331
15.0125	933.63	60.4526
15.0148	920.061	60.4722
15.0157	926.509	60.4917
15.0178	935.185	60.51123
15.0197	921.861	60.5308
15.0206	921.014	60.5503
15.0227	934.8092	60.5698
15.0248	923.016	60.5894
15.0254	919.544	60.6089
15.0273	933.145	60.6284
15.0288	926.182	60.6479
15.0313	919.839	60.66748
15.03182	931.128	60.687
15.0332	927.774	60.7065
15.0363	916.874	60.7261
15.0378	931.068	60.7456
15.0389	929.838	60.7651
15.0407	918.64	60.7847
15.0423	924.713	60.8042
15.0436	932.308	60.82373
15.04539	921.089	60.8433
15.0472	923.807	60.8628
15.048	928.8075	60.8823
15.0509	923.448	60.9019
15.0512	918.922	60.9214
15.0528	932.197	60.9409
15.0552	924.85	60.9604
15.056	918.392	60.97998
15.0581	926.73	60.9995
15.0598	928.011	61.019
15.0623	916.484	61.0386
15.0624	927.783	61.0581
15.0642	928.901	61.0776
15.0664	920.254	61.0972
15.0682	921.695	61.1167
15.0703	929.315	61.13623
15.0713	915.59	61.1558
15.0732	921.262	61.1753
15.0747	932.521	61.1948
15.0762	920.389	61.2144
15.0776	914.271	61.2339
15.08005	930.322	61.2534
15.0806	921.409	61.2729
15.0829	916.073	61.29248
15.085	927.041	61.312
15.0854	922.2995	61.3315
15.08739	913.381	61.3511
15.0901	924.023	61.3706
15.0904	925.097	61.3901
15.0923	910.924	61.4097
15.0945	921.165	61.4292
15.0948	924.429	61.44873
15.0967	914.806	61.4683
15.09926	911.153	61.4878
15.1096	-9.55807	61.5073
15.1089	-45.5951	61.5269
15.10814	-46.8507	61.5464
15.1074	-42.4597	61.5659
15.1098	-46.6116	61.5854
15.1104	-51.9592	61.60498
15.1113	-36.6773	61.6245
15.11444	-40.2157	61.644
15.1151	-49.1814	61.6636
15.1166	-43.1521	61.6831
15.1173	-36.56287	61.7026
15.1203	-52.3129	61.7222
15.1203	-43.6833	61.7417
15.1232	-35.4696	61.76123
15.1234	-46.9462	61.7808
15.1268	-46.5364	61.8003
15.1272	-33.8909	61.8198
15.1295	-48.5072	61.8394
15.1303	-50.4168	61.8589
15.1317	-34.2748	61.8784
15.134	-42.8806	61.8979
15.1355	-53.4928	61.91748
15.137	-36.7455	61.937
15.1387	-41.069	61.9565
15.1397	-51.3518	61.9761
15.1415	-38.96468	61.9956
15.1428	-40.2313	62.0151
15.1461	-51.6528	62.0347
15.1463	-43.6906	62.0542
15.1483	-36.6167	62.07373
15.1509	-50.1435	62.0933
15.1528	-45.4856	62.1128
15.1541	-37.8651	62.1323
15.1551	-44.7867	62.1519
15.1567	-48.92	62.1714
15.1588	-38.1029	62.1909
15.16	-45.0427	62.2104
15.16071	-47.2647	62.22998
15.1621	-40.41357	62.2495
15.1645	-39.7433	62.269
15.1661	-52.8011	62.2886
15.1691	-39.2723	62.3081
15.1696	-37.2436	62.3276
15.1698	-48.5829	62.3472
15.172	-45.3008	62.3667
15.1742	-35.6386	62.38623
15.1756	-48.4792	62.4058
15.1776	-44.82262	62.4253
15.1798	-35.995	62.4448
15.1799	-45.4868	62.4644
15.1824	-50.2898	62.4839
15.184	-35.3973	62.5034
15.1855	-44.8454	62.5229
15.18692	-51.1892	62.54248
15.1891	-37.7166	62.562
15.1903	-40.2146	62.5815
15.1916	-51.8092	62.6011
15.193	-40.4855	62.6206
15.1959	-39.8751	62.6401
15.1966	-49.9954	62.6597
15.199	-40.25132	62.6792
15.2003	-37.89653	62.69873
15.2024	-50.4333	62.7183
15.203	-47.3586	62.7378
15.2057	-36.3896	62.7573
15.2069	-45.9358	62.7769
15.2084	-47.16748	62.7964
15.2104	-38.8145	62.8159
15.2121	-42.5092	62.8354
15.2137	-50.3263	62.85498
15.2152	-37.7217	62.8745
15.2171	-41.8377	62.894
15.2179	-49.4467	62.9136
15.2199	-43.7975	62.9331
15.2205	-39.7088	62.9526