File: data/processed_data_files/tensile/0.254_hd_dimension_typeiv_090_r(9).dat
MTS793|BTW|ENU|1|2|.|/|:|1|0|0|A

Data Header:			0.254_hd_dimension_typeiv_090_r0			Time:	20.0178	s	4/14/2019 12:38:49 AM
Data Acquisition:	Timed
Station Name:	ft40.cfg
Test File Name:	monotonic_0.2540_typeiv_hd_090_dimension.tst
Displacement	Force	Running Time
mm	N	s
-40.0414	-181.313	0.0227051
-40.0381	-182.113	0.0910645
-40.0337	-177.3866	0.159424
-40.0267	-174.522	0.2277832
-40.0226	-169.381	0.296143
-40.01627	-160.793	0.364502
-40.009	-156.127	0.432861
-40.0039	-155.701	0.5012207
-39.9998	-153.332	0.56958
-39.9935	-151.462	0.637939
-39.9879	-147.795	0.706299
-39.9818	-144.404	0.7746582
-39.9765	-143.817	0.843018
-39.971	-141.625	0.911377
-39.9641	-135.945	0.979736
-39.9602	-126.3245	1.0481
-39.9535	-124.478	1.11646
-39.9479	-118.051	1.18481
-39.9422	-116.043	1.25317
-39.9353	-114.746	1.32153
-39.93055	-111.55	1.38989
-39.9242	-109.152	1.458252
-39.9196	-109.231	1.52661
-39.9143	-107.384	1.59497
-39.9077	-100.73	1.66333
-39.902	-93.5076	1.73169
-39.8965	-91.0681	1.80005
-39.8906	-84.0363	1.86841
-39.884	-80.0211	1.93677
-39.879	-81.3506	2.005127
-39.8731	-76.3762	2.07349
-39.8687	-73.4648	2.14185
-39.8627	-75.1685	2.21021
-39.8562	-72.7112	2.27856
-39.851	-68.4964	2.34692
-39.8447	-59.6905	2.41528
-39.84	-57.6613	2.48364
-39.8335	-52.4317	2.552002
-39.8281	-45.9933	2.62036
-39.8228	-45.54324	2.68872
-39.81649	-41.5848	2.75708
-39.8114	-38.1467	2.82544
-39.8055	-40.9311	2.8938
-39.799	-41.40691	2.96216
-39.7939	-33.1902	3.03052
-39.7879	-27.314	3.098877
-39.7832	-26.1805	3.16724
-39.776	-19.4837	3.2356
-39.7706	-12.3153	3.30396
-39.7655	-11.9846	3.37231
-39.7594	-7.12494	3.44067
-39.7545	-4.47845	3.50903
-39.7477	-6.40288	3.57739
-39.744	-6.11466	3.645752
-39.7367	-1.34935	3.71411
-39.7316	4.10652	3.78247
-39.72551	7.13763	3.85083
-39.7193	12.4681	3.91919
-39.7148	21.48399	3.98755
-39.7089	23.8893	4.05591
-39.7028	26.179	4.12427
-39.6973	31.26939	4.192627
-39.691	30.0525	4.26099
-39.685	28.637	4.32935
-39.6796	34.8199	4.39771
-39.6747	39.0585	4.46606
-39.6689	41.16761	4.53442
-39.6632	45.1513	4.60278
-39.658	52.6109	4.67114
-39.6526	58.2084	4.739502
-39.6457	60.1952	4.80786
-39.6402	63.776	4.87622
-39.6347	63.5403	4.94458
-39.6298	64.3788	5.01294
-39.6231	68.3372	5.0813
-39.6178	70.3851	5.14966
-39.6124	74.181	5.21802
-39.6061	78.2023	5.286377
-39.6013	83.4112	5.35474
-39.5957	91.4217	5.4231
-39.5888	94.1457	5.49146
-39.5823	97.6424	5.55981
-39.57745	96.7471	5.62817
-39.572	98.2074	5.69653
-39.5672	103.842	5.76489
-39.56086	104.7885	5.833252
-39.555	107.551	5.90161
-39.5489	111.772	5.96997
-39.54327	115.618	6.03833
-39.5378	121.2879	6.10669
-39.53183	126.611	6.17505
-39.5264	129.977	6.24341
-39.5206	128.866	6.31177
-39.5154	134.204	6.380127
-39.5098	137.549	6.44849
-39.5027	137.007	6.51685
-39.4984	140.853	6.58521
-39.4932	143.02	6.65356
-39.4867	145.112	6.72192
-39.4806	150.63	6.79028
-39.475	159.498	6.85864
-39.4699	160.369	6.927002
-39.4638	162.533	6.99536
-39.458	165.588	7.06372
-39.4526	172.242	7.13208
-39.4464	169.721	7.20044
-39.4416	171.039	7.2688
-39.4359	177.083	7.33716
-39.4296	177.983	7.40552
-39.4241	181.783	7.473877
-39.4171	189.978	7.54224
-39.4125	191.591	7.6106
-39.4067	193.231	7.67896
-39.4012	198.385	7.74731
-39.3953	204.889	7.81567
-39.3905	202.842	7.88403
-39.3849	205.281	7.95239
-39.3776	208.2825	8.020752
-39.3729	209.282	8.08911
-39.3671	213.315	8.15747
-39.3615	219.455	8.22583
-39.35545	222.328	8.29419
-39.3507	222.783	8.36255
-39.3438	229.963	8.43091
-39.3384	237.706	8.49927
-39.333	236.524	8.567627
-39.328	237.499	8.63599
-39.3211	241.064	8.70435
-39.3154	240.659	8.77271
-39.31	243.414	8.84106
-39.3048	248.292	8.90942
-39.2987	250.929	8.97778
-39.2933	254.277	9.04614
-39.2866	261.328	9.114502
-39.2817	268.944	9.18286
-39.2755	268.628	9.25122
-39.2699	268.8	9.31958
-39.2642	272.7793	9.38794
-39.2588	273.213	9.4563
-39.253	275.295	9.52466
-39.2471	277.439	9.59302
-39.2422	281.584	9.661377
-39.2359	283.223	9.72974
-39.2303	288.568	9.7981
-39.2247	296.368	9.86646
-39.2189	298.491	9.93481
-39.2128	300.255	10.0032
-39.2079	303.456	10.0715
-39.202	303.501	10.1399
-39.1956	305.592	10.2083
-39.1902	307.277	10.2766
-39.1845	308.68	10.345
-39.1796	310.755	10.41333
-39.17313	318.185	10.4817
-39.16777	324.528	10.55
-39.1621	327.246	10.6184
-39.1571	329.886	10.6868
-39.1503	332.606	10.7551
-39.1447	333.6973	10.8235
-39.1389	333.801	10.8918
-39.1341	335.759	10.9602
-39.128	335.999	11.0286
-39.1231	337.696	11.0969
-39.1162	345.979	11.1653
-39.1107	350.158	11.2336
-39.1045	353.9487	11.302
-39.0987	358.557	11.3704
-39.0944	360.524	11.4387
-39.088	360.756	11.50708
-39.0827	363.493	11.5754
-39.0761	363.555	11.6438
-39.0715	361.343	11.7122
-39.0652	364.246	11.7805
-39.059	373.191	11.8489
-39.05386	373.773	11.9172
-39.0484	378.677	11.9856
-39.0419	383.684	12.054
-39.036	384.768	12.1223
-39.0312	386.098	12.1907
-39.0246	389.662	12.259
-39.0201	390.969	12.3274
-39.014	386.068	12.3958
-39.0088	389.535	12.4641
-39.0025	396.332	12.5325
-38.997	396.593	12.60083
-38.9911	400.293	12.6692
-38.9847	407.967	12.7375
-38.9795	408.598	12.8059
-38.9734	411.476	12.8743
-38.9681	413.513	12.9426
-38.9626	413.204	13.011
-38.9583	408.101	13.0793
-38.951	410.279	13.1477
-38.94537	416.466	13.2161
-38.9386	417.683	13.2844
-38.9343	418.323	13.3528
-38.92712	425.9126	13.4211
-38.9231	427.859	13.4895
-38.91729	430.094	13.5579
-38.912	430.831	13.6262
-38.906	431.245	13.69458
-38.89962	427.173	13.7629
-38.8942	427.291	13.8313
-38.8894	432.508	13.8997
-38.8828	430.691	13.968
-38.8785	431.431	14.0364
-38.8717	439.27	14.1047
-38.86557	441.893	14.1731
-38.8591	443.06	14.2415
-38.8545	446.83	14.3098
-38.8486	445.142	14.3782
-38.8425	441.558	14.4465
-38.83762	440.937	14.5149
-38.8313	445.429	14.5833
-38.8252	442.36	14.6516
-38.8203	443.213	14.72
-38.8136	445.762	14.78833
-38.808	450.3392	14.8567
-38.8017	451.112	14.925
-38.7975	453.178	14.9934
-38.79031	453.224	15.0618
-38.7856	449.465	15.1301
-38.7804	447.8447	15.1985
-38.7746	450.084	15.2668
-38.77	448.951	15.3352
-38.76432	447.774	15.4036
-38.7578	450.582	15.4719
-38.7525	452.867	15.5403
-38.7458	453.995	15.6086
-38.74	453.887	15.677
-38.7353	455.237	15.7454
-38.7288	453.394	15.8137
-38.7228	452.229	15.88208
-38.718	452.289	15.9504
-38.7123	449.35	16.0188
-38.7059	449.688	16.0872
-38.6997	448.956	16.1555
-38.694	448.8938	16.2239
-38.6897	452.941	16.2922
-38.6837	453.059	16.3606
-38.67765	451.232	16.429
-38.6722	450.961	16.4973
-38.6677	451.627	16.5657
-38.6598	449.406	16.634
-38.6546	446.999	16.7024
-38.6493	446.2377	16.7708
-38.64444	443.235	16.8391
-38.6378	443.635	16.9075
-38.6317	446.221	16.97583
-38.6274	447.125	17.0442
-38.61948	444.41	17.1125
-38.6158	446.255	17.1809
-38.6085	449.424	17.2493
-38.6042	445.3	17.3176
-38.598	442.448	17.386
-38.5923	440.955	17.4543
-38.5868	441.762	17.5227
-38.58176	437.907	17.5911
-38.5751	439.913	17.6594
-38.57	442.162	17.7278
-38.5646	438.981	17.7961
-38.5576	441.294	17.8645
-38.553	444.752	17.9329
-38.5472	443.056	18.0012
-38.5406	440.663	18.06958
-38.5354	439.69	18.1379
-38.53	437.248	18.2063
-38.5243	435.445	18.2747
-38.5186	436.754	18.343
-38.5121	437.277	18.4114
-38.5061	433.686	18.4797
-38.501	436.111	18.5481
-38.4954	443.059	18.6165
-38.4897	439.634	18.6848
-38.4841	438.024	18.7532
-38.478	439.557	18.8215
-38.472	435.466	18.8899
-38.4674	433.569	18.9583
-38.4619	433.918	19.0266
-38.4562	432.905	19.095
-38.4503	430.214	19.16333
-38.445	432.835	19.2317
-38.4381	438.816	19.3
-38.433	437.258	19.3684
-38.4272	437.165	19.4368
-38.421	437.378	19.5051
-38.416	433.684	19.5735
-38.4106	431.902	19.6418
-38.4036	431.81	19.7102
-38.3981	430.731	19.7786
-38.393	427.748	19.8469
-38.3872	430.306	19.9153
-38.3816	436.065	19.9836
-38.3789	429.8197	20.0129

Data Header:			0.254_hd_dimension_typeiv_090_r0			Time:	33.3391	s	4/14/2019 12:39:02 AM
Data Acquisition:	Timed
Station Name:	ft40.cfg
Test File Name:	monotonic_0.2540_typeiv_hd_090_dimension.tst
Displacement	Force	Running Time
mm	N	s
-38.378	429.894	20.0227
-38.3748	434.1713	20.0715
-38.3706	435.345	20.1204
-38.3659	432.6564	20.1692
-38.3613	429.607	20.218
-38.3587	432.047	20.2668
-38.35342	434.974	20.3157
-38.3502	432.618	20.3645
-38.3459	426.967	20.41333
-38.3421	429.199	20.4622
-38.3374	432.984	20.511
-38.3337	437.283	20.5598
-38.3292	434.813	20.6086
-38.3257	428.6868	20.6575
-38.32169	430.604	20.7063
-38.3171	435.629	20.7551
-38.3128	433.616	20.804
-38.3092	429.284	20.8528
-38.3046	427.048	20.9016
-38.3011	432.327	20.9504
-38.2971	434.77	20.9993
-38.2929	428.774	21.0481
-38.2891	426.35	21.0969
-38.28429	428.049	21.1458
-38.2812	435.04	21.19458
-38.2767	436.512	21.2434
-38.272	432.282	21.2922
-38.2679	428.543	21.3411
-38.2648	430.006	21.3899
-38.2603	436.574	21.4387
-38.2565	432.74	21.4875
-38.2513	427.832	21.5364
-38.2473	426.878	21.5852
-38.2436	431.7717	21.634
-38.2407	434.119	21.6829
-38.2355	427.75	21.7317
-38.2327	423.466	21.7805
-38.2281	425.504	21.8293
-38.2227	433.644	21.8782
-38.2197	435.967	21.927
-38.2159	429.378	21.97583
-38.2122	427.684	22.0247
-38.2084	430.486	22.0735
-38.2036	434.965	22.1223
-38.1999	431.473	22.1711
-38.1954	427.162	22.22
-38.1906	426.337	22.2688
-38.1878	432.843	22.3176
-38.1835	433.333	22.3665
-38.179	425.516	22.4153
-38.1753	421.797	22.4641
-38.1715	427.359	22.5129
-38.167	433.1	22.5618
-38.1628	433.553	22.6106
-38.1594	428.231	22.6594
-38.1559	427.931	22.7083
-38.1507	431.478	22.75708
-38.14682	434.553	22.8059
-38.1431	430.819	22.8547
-38.1385	424.76	22.9036
-38.1337	428.224	22.9524
-38.131	433.374	23.0012
-38.126	433.376	23.05
-38.12162	423.942	23.0989
-38.1175	422.332	23.1477
-38.1137	426.847	23.1965
-38.11	431.687	23.2454
-38.1064	430.627	23.2942
-38.1007	425.986	23.343
-38.0971	429.505	23.3918
-38.0939	431.872	23.4407
-38.08873	433.504	23.4895
-38.08596	429.153	23.53833
-38.0808	425.911	23.5872
-38.0768	429.058	23.636
-38.0732	433.343	23.6848
-38.069	431.959	23.7336
-38.0652	423.353	23.7825
-38.0605	423.1207	23.8313
-38.05727	427.697	23.8801
-38.0538	430.855	23.929
-38.0496	428.404	23.9778
-38.0444	426.092	24.0266
-38.0403	429.079	24.0754
-38.037	431.438	24.1243
-38.0327	429.749	24.1731
-38.0276	428.358	24.2219
-38.0235	426.277	24.2708
-38.0195	429.866	24.31958
-38.0174	432.317	24.3684
-38.0118	431.262	24.4172
-38.0082	424.62	24.4661
-38.0027	424.886	24.5149
-37.9998	427.486	24.5637
-37.9959	428.8674	24.6125
-37.99226	426.406	24.6614
-37.9877	424.941	24.7102
-37.984	429.386	24.759
-37.9794	429.015	24.8079
-37.9746	428.026	24.8567
-37.972	425.771	24.9055
-37.9662	425.952	24.9543
-37.9635	430.43	25.0032
-37.9594	431.156	25.052
-37.9558	427.263	25.10083
-37.9507	424.143	25.1497
-37.9478	425.487	25.1985
-37.9427	428.442	25.2473
-37.9389	427.577	25.2961
-37.93615	424.9516	25.345
-37.93045	424.676	25.3938
-37.92815	430.022	25.4426
-37.9231	429.7756	25.4915
-37.9186	427.542	25.5403
-37.9135	424.079	25.5891
-37.9108	427.832	25.6379
-37.9056	430.6799	25.6868
-37.9022	428.889	25.7356
-37.8983	426.7536	25.7844
-37.8947	425.802	25.8333
-37.8896	426.462	25.88208
-37.8846	426.833	25.9309
-37.88269	425.802	25.9797
-37.8788	424.601	26.0286
-37.87373	426.148	26.0774
-37.87	429.985	26.1262
-37.8658	428.327	26.175
-37.8621	421.513	26.2239
-37.8573	424.031	26.2727
-37.8535	427.388	26.3215
-37.8491	429.0593	26.3704
-37.8446	428.32	26.4192
-37.8414	423.5585	26.468
-37.8379	426.798	26.5168
-37.8336	426.295	26.5657
-37.8287	425.5043	26.6145
-37.8246	421.14	26.66333
-37.8203	423.131	26.7122
-37.8163	427.592	26.761
-37.8126	429.195	26.8098
-37.8083	426.108	26.8586
-37.8041	422.591	26.9075
-37.7997	423.589	26.9563
-37.7955	428.812	27.0051
-37.7931	427.251	27.054
-37.7884	424.623	27.1028
-37.7841	424.318	27.1516
-37.7795	427.166	27.2004
-37.7763	427.624	27.2493
-37.77206	423.929	27.2981
-37.7678	420.1666	27.3469
-37.7643	422.381	27.3958
-37.7593	428.866	27.44458
-37.7554	429.765	27.4934
-37.7526	425.0719	27.5422
-37.7478	420.293	27.5911
-37.7435	424.492	27.6399
-37.7407	427.881	27.6887
-37.7346	425.204	27.7375
-37.7318	421.886	27.7864
-37.7271	421.353	27.8352
-37.72345	428.712	27.884
-37.7203	428.061	27.9329
-37.7155	422.0386	27.9817
-37.7101	418.607	28.0305
-37.7079	423.45	28.0793
-37.7035	428.129	28.1282
-37.6998	427.538	28.177
-37.6946	424.634	28.22583
-37.6906	420.783	28.2747
-37.68758	423.945	28.3235
-37.6825	426.341	28.3723
-37.6787	424.112	28.4211
-37.6739	420.396	28.47
-37.6708	421.613	28.5188
-37.6667	427.866	28.5676
-37.662	427.672	28.6165
-37.6593	420.505	28.6653
-37.6538	418.84	28.7141
-37.6499	421.893	28.7629
-37.6457	428.113	28.8118
-37.6423	427.575	28.8606
-37.6387	422.514	28.9094
-37.6337	420.456	28.9583
-37.6305	425.196	29.00708
-37.6249	427.01	29.0559
-37.6222	422.637	29.1047
-37.6178	417.708	29.1536
-37.61351	422.339	29.2024
-37.6094	426.822	29.2512
-37.6046	424.951	29.3
-37.6015	418.047	29.3489
-37.5965	417.01	29.3977
-37.5936	422.702	29.4465
-37.5894	428.092	29.4954
-37.5838	424.731	29.5442
-37.5812	419.418	29.593
-37.5771	421.253	29.6418
-37.573	424.905	29.6907
-37.5682	425.493	29.7395
-37.5641	419.929	29.78833
-37.5611	418.015	29.8372
-37.55587	421.175	29.886
-37.5519	425.9332	29.9348
-37.5488	423.112	29.9836
-37.5449	415.697	30.0325
-37.5397	413.697	30.0813
-37.5361	422.3125	30.1301
-37.5322	425.246	30.179
-37.5287	422.26	30.2278
-37.525	420.574	30.2766
-37.5209	420.092	30.3254
-37.51556	425.704	30.3743
-37.5105	424.757	30.4231
-37.5084	418.833	30.4719
-37.5036	416.07	30.5208
-37.4999	420.665	30.56958
-37.497	423.918	30.6184
-37.4908	418.688	30.6672
-37.4874	413.693	30.7161
-37.4826	413.573	30.7649
-37.4785	420.515	30.8137
-37.475	421.651	30.8625
-37.4707	417.954	30.9114
-37.4666	415.673	30.9602
-37.4633	419.859	31.009
-37.4589	419.767	31.0579
-37.4548	418.968	31.1067
-37.4513	414.547	31.1555
-37.4469	414.75	31.2043
-37.4421	417.022	31.2532
-37.4386	414.682	31.302
-37.434	404.603	31.35083
-37.4286	-64.1418	31.3997
-37.4246	-45.3577	31.4485
-37.4216	-40.9148	31.4973
-37.41835	-41.1013	31.5461
-37.4134	-45.2282	31.595
-37.4094	-44.3707	31.6438
-37.4061	-38.8739	31.6926
-37.4006	-39.4861	31.7415
-37.3975	-42.5854	31.7903
-37.3918	-45.7806	31.8391
-37.3893	-42.1972	31.8879
-37.3847	-37.8754	31.9368
-37.3799	-39.9606	31.9856
-37.3756	-45.1079	32.0344
-37.3724	-46.54517	32.0833
-37.3684	-45.182	32.13208
-37.36578	-43.4341	32.1809
-37.361	-45.0141	32.2297
-37.357	-45.2133	32.2786
-37.3534	-42.515	32.3274
-37.3485	-38.4801	32.3762
-37.3445	-40.6783	32.425
-37.3415	-44.4834	32.4739
-37.3363	-45.1099	32.5227
-37.3316	-41.8173	32.5715
-37.3283	-39.13649	32.6204
-37.3242	-42.408	32.6692
-37.3202	-44.9045	32.718
-37.316	-44.7253	32.7668
-37.3131	-44.4421	32.8157
-37.3073	-43.6597	32.8645
-37.30447	-47.8242	32.91333
-37.3004	-45.9562	32.9622
-37.295	-41.2382	33.011
-37.2915	-39.2065	33.0598
-37.2871	-42.19	33.1086
-37.2833	-45.5779	33.1575
-37.2799	-43.7922	33.2063
-37.2758	-38.1743	33.2551
-37.2718	-39.24511	33.304
-37.2698	-45.7775	33.3333