File: data/processed_data_files/tensile/0.254_hd_dimension_typei_090_r(4).dat
MTS793|BTW|ENU|1|2|.|/|:|1|0|0|A

Data Header:			0.254_hd_dimension_typei_090_r0			Time:	20.0176	s	4/15/2019 3:38:35 PM
Data Acquisition:	Timed
Station Name:	ft40.cfg
Test File Name:	monotonic_0.2540_typei_hd_090_dimension.tst
Displacement	Force	Running Time
mm	N	s
9.98066	-160.679	0.0224609
9.98212	-159.179	0.0908203
9.98869	-152.448	0.15918
9.99313	-146.489	0.227539
9.99984	-142.812	0.295898
10.0052	-139.506	0.364258
10.0108	-141.728	0.432617
10.017	-139.938	0.500977
10.022	-138.133	0.569336
10.0276	-138.284	0.637695
10.0328	-136.838	0.706055
10.0388	-131.1	0.774414
10.0445	-125.96	0.842773
10.0503	-119.306	0.911133
10.0559	-111.863	0.979492
10.0628	-108.003	1.04785
10.0678	-108.719	1.11621
10.0727	-109.902	1.18457
10.079	-103.742	1.25293
10.0847	-105.804	1.32129
10.0901	-104.397	1.38965
10.0959	-100.658	1.45801
10.1024	-96.0552	1.52637
10.1075	-86.8992	1.59473
10.11275	-81.5972	1.66309
10.1195	-78.5085	1.73145
10.1242	-75.6391	1.7998
10.13	-72.367	1.86816
10.1364	-70.3187	1.93652
10.142	-72.8742	2.00488
10.1475	-70.7644	2.07324
10.1529	-68.6381	2.1416
10.1585	-66.0586	2.20996
10.1642	-56.9673	2.27832
10.1701	-50.6655	2.34668
10.1755	-47.2312	2.41504
10.182	-42.8545	2.4834
10.1875	-38.1756	2.55176
10.19284	-37.3732	2.62012
10.1979	-38.5803	2.68848
10.20412	-36.0319	2.75684
10.2102	-33.0911	2.8252
10.2153	-32.6507	2.89355
10.22027	-25.2884	2.96191
10.2269	-18.6619	3.03027
10.233	-15.0435	3.09863
10.2388	-11.2748	3.16699
10.2443	-2.38074	3.23535
10.2495	0.246956	3.30371
10.2559	-2.73058	3.37207
10.2614	-0.821868	3.44043
10.2666	-0.265624	3.50879
10.2728	0.252704	3.57715
10.2789	7.98795	3.64551
10.2841	14.5602	3.71387
10.2889	16.4532	3.78223
10.2948	23.00465	3.85059
10.3015	30.7045	3.91895
10.30658	36.1309	3.9873
10.3118	32.6793	4.05566
10.3176	36.3796	4.12402
10.32456	37.4314	4.19238
10.3292	37.3564	4.26074
10.3362	40.1986	4.3291
10.3416	46.5363	4.39746
10.3457	49.9528	4.46582
10.353	54.75914	4.53418
10.359	64.4291	4.60254
10.3626	68.7696	4.6709
10.3693	69.1735	4.73926
10.3752	71.6261	4.80762
10.381	72.3915	4.87598
10.3853	74.4463	4.94434
10.3925	75.365	5.0127
10.3975	79.0458	5.08105
10.4039	84.8444	5.14941
10.4082	88.8809	5.21777
10.4152	97.6217	5.28613
10.4211	103.675	5.35449
10.4264	106.375	5.42285
10.4312	110.352	5.49121
10.4387	108.087	5.55957
10.4433	113.0629	5.62793
10.4491	112.737	5.69629
10.454	112.869	5.76465
10.4611	115.748	5.83301
10.4669	121.151	5.90137
10.4718	129.54	5.96973
10.478	134.1077	6.03809
10.4835	139.575	6.10645
10.48904	143.881	6.1748
10.4941	146.368	6.24316
10.4995	149.104	6.31152
10.5068	149.312	6.37988
10.51192	149.818	6.44824
10.518	148.328	6.5166
10.5225	155.954	6.58496
10.52828	162.845	6.65332
10.5352	166.958	6.72168
10.54	172.719	6.79004
10.5464	180.972	6.8584
10.55243	181.658	6.92676
10.5573	182.681	6.99512
10.5635	188.022	7.06348
10.5684	186.106	7.13184
10.5746	183.283	7.2002
10.5811	187.631	7.26855
10.5856	197.8443	7.33691
10.5912	199.725	7.40527
10.59681	205.653	7.47363
10.6029	214.16	7.54199
10.6092	213.523	7.61035
10.6143	219.041	7.67871
10.6197	223.506	7.74707
10.6255	222.262	7.81543
10.6315	218.826	7.88379
10.6379	223.372	7.95215
10.643	228.5827	8.02051
10.6481	233.3	8.08887
10.6543	235.4	8.15723
10.66059	247.628	8.22559
10.6653	250.318	8.29395
10.67168	254.7496	8.3623
10.6767	258.17	8.43066
10.6829	257.224	8.49902
10.6881	254.969	8.56738
10.6938	256.252	8.63574
10.6996	261.348	8.7041
10.7051	263.913	8.77246
10.711	269.997	8.84082
10.717	277.106	8.90918
10.72234	282.226	8.97754
10.7279	288.6662	9.0459
10.7336	291.8493	9.11426
10.7391	293.244	9.18262
10.7453	293.166	9.25098
10.7508	294.609	9.31934
10.7563	296.995	9.3877
10.7622	296.98	9.45605
10.7679	304.35	9.52441
10.7729	309.683	9.59277
10.7781	316.71	9.66113
10.785	323.517	9.72949
10.7911	326.8027	9.79785
10.796	326.73	9.86621
10.8022	327.21	9.93457
10.808	330.872	10.00293
10.8137	330.012	10.0713
10.8193	331.033	10.1396
10.82515	335.745	10.208
10.8316	341.606	10.2764
10.8356	346.198	10.3447
10.8419	355.945	10.4131
10.84761	361.753	10.4814
10.8541	362.635	10.5498
10.85943	363.572	10.6182
10.8651	368.381	10.6865
10.8707	366.456	10.7549
10.8764	365.5567	10.8232
10.8824	368.856	10.8916
10.8868	373.513	10.96
10.8925	378.501	11.02832
10.8991	387.611	11.09668
10.9044	395.214	11.165
10.9103	395.049	11.2334
10.9155	398.199	11.3018
10.9216	401.099	11.3701
10.9272	402.773	11.4385
10.93198	399.1749	11.5068
10.9385	402.628	11.5752
10.9455	405.011	11.6436
10.9499	409.491	11.7119
10.9552	417.081	11.7803
10.9616	423.866	11.8486
10.9683	429.891	11.917
10.9738	431.663	11.9854
10.9787	438.934	12.0537
10.9837	437.876	12.12207
10.9902	434.147	12.19043
10.99582	436.021	12.2588
11.001	436.988	12.3271
11.0065	440.727	12.3955
11.0127	448.073	12.4639
11.0184	454.68	12.5322
11.0236	457.944	12.6006
11.0297	462.748	12.6689
11.0351	470.293	12.7373
11.0413	470.133	12.8057
11.0469	469.641	12.874
11.05171	469.293	12.9424
11.0598	469.354	13.0107
11.0642	472.219	13.0791
11.0691	478.2934	13.1475
11.0761	484.386	13.21582
11.0813	486.459	13.28418
11.08745	492.902	13.3525
11.0922	501.123	13.4209
11.099	503.0979	13.4893
11.1046	505.09	13.5576
11.1088	502.758	13.626
11.11603	502.264	13.6943
11.12075	503.9462	13.7627
11.126	508.892	13.8311
11.1328	513.485	13.8994
11.1387	518.606	13.9678
11.143	525.222	14.0361
11.1497	532.299	14.1045
11.1555	533.048	14.1729
11.1612	537.89	14.2412
11.167	539.222	14.30957
11.1734	535.065	14.37793
11.1776	538.553	14.4463
11.1834	541.859	14.5146
11.18908	543.5105	14.583
11.1956	544.9743	14.6514
11.20144	553.521	14.7197
11.2067	562.331	14.7881
11.2121	563.923	14.8564
11.2178	567.223	14.9248
11.2231	570.5	14.9932
11.2294	566.226	15.0615
11.2347	569.523	15.1299
11.2408	572.477	15.1982
11.2466	572.478	15.2666
11.2528	570.794	15.335
11.258	580.9986	15.40332
11.2641	591.118	15.47168
11.2692	592.479	15.54
11.27589	597.269	15.6084
11.2803	601.242	15.6768
11.2861	600.271	15.7451
11.2915	600.226	15.8135
11.2974	602.273	15.8818
11.3031	602.531	15.9502
11.3085	600.063	16.0186
11.315	606.5249	16.0869
11.3215	617.481	16.1553
11.326	620.41	16.2236
11.332	625.657	16.292
11.3368	630.879	16.3604
11.3425	631.647	16.4287
11.3488	634.4646	16.49707
11.3542	633.788	16.56543
11.3606	631.838	16.6338
11.3667	631.384	16.7021
11.3709	636.8894	16.7705
11.3781	642.551	16.8389
11.38328	648.113	16.9072
11.3892	652.553	16.9756
11.3935	658.207	17.0439
11.3993	661.8208	17.1123
11.4057	663.72	17.1807
11.4112	663.126	17.249
11.418	660.997	17.3174
11.4229	659.63	17.3857
11.42799	663.857	17.4541
11.4342	669.716	17.5225
11.4394	672.06	17.59082
11.4461	680.055	17.65918
11.451	685.135	17.7275
11.4576	688.704	17.7959
11.4629	691.994	17.8643
11.4692	692.964	17.9326
11.4743	689.529	18.001
11.4804	687.897	18.0693
11.4855	693.435	18.1377
11.4914	693.417	18.2061
11.4976	697.317	18.2744
11.5021	705.125	18.3428
11.5087	709.27	18.4111
11.5138	715.757	18.4795
11.5201	721.3479	18.5479
11.5256	721.438	18.6162
11.5307	717.458	18.68457
11.5368	716.146	18.75293
11.541	719.979	18.8213
11.5491	720.6308	18.8896
11.5535	721.155	18.958
11.5594	729.12	19.0264
11.5648	732.5658	19.0947
11.5712	737.965	19.1631
11.5767	745.141	19.2314
11.5817	749.264	19.2998
11.5884	745.348	19.3682
11.593	743.889	19.4365
11.5996	746.364	19.5049
11.605	746.555	19.5732
11.61153	744.242	19.6416
11.6162	750.884	19.71
11.6223	755.93	19.77832
11.628	760.881	19.84668
11.634	766.225	19.915
11.6394	773.003	19.9834
11.6422	758.716	20.0127

Data Header:			0.254_hd_dimension_typei_090_r0			Time:	40.0173	s	4/15/2019 3:38:55 PM
Data Acquisition:	Timed
Station Name:	ft40.cfg
Test File Name:	monotonic_0.2540_typei_hd_090_dimension.tst
Displacement	Force	Running Time
mm	N	s
11.6428	761.573	20.0225
11.6491	764.593	20.09082
11.6533	771.609	20.15918
11.6596	777.0531	20.2275
11.6662	779.44	20.2959
11.67116	783.11	20.3643
11.6767	785.399	20.4326
11.68224	781.349	20.501
11.6886	775.195	20.5693
11.6936	779.7605	20.6377
11.7	783.248	20.7061
11.7052	781.173	20.7744
11.7107	787.7558	20.8428
11.7176	796.046	20.9111
11.7235	799.145	20.9795
11.7276	803.436	21.0479
11.7335	806.1925	21.1162
11.7398	802.9566	21.18457
11.7445	796.043	21.25293
11.7495	800.5885	21.3213
11.7567	801.471	21.3896
11.7618	801.3	21.458
11.7677	805.482	21.5264
11.7733	812.8913	21.5947
11.7797	814.618	21.6631
11.78579	819.916	21.7314
11.7909	824.891	21.7998
11.7958	822.226	21.8682
11.8029	816.892	21.9365
11.8077	817.995	22.0049
11.8145	818.836	22.0732
11.8197	817.294	22.1416
11.8242	818.518	22.21
11.8305	825.344	22.27832
11.8364	828.339	22.34668
11.8412	833.666	22.415
11.8486	838.05	22.4834
11.853	837.4585	22.5518
11.8585	832.8645	22.6201
11.8657	834.048	22.6885
11.8693	832.357	22.7568
11.8748	830.414	22.8252
11.8819	830.846	22.8936
11.8871	833.532	22.9619
11.8933	837.9881	23.0303
11.8981	843.75	23.0986
11.9046	847.839	23.167
11.9116	847.256	23.2354
11.9154	845.931	23.3037
11.92202	847.25	23.37207
11.928	841.578	23.44043
11.9332	840.025	23.5088
11.9391	839.401	23.5771
11.9449	841.471	23.6455
11.95096	842.499	23.7139
11.9561	851.031	23.7822
11.9622	852.341	23.8506
11.9661	854.512	23.9189
11.9727	853.913	23.9873
11.9791	854.895	24.0557
11.9847	851.137	24.124
11.9895	847.297	24.1924
11.9954	846.093	24.2607
12.0007	843.815	24.3291
12.00864	846.132	24.3975
12.013	853.078	24.46582
12.0173	855.879	24.53418
12.0239	855.509	24.6025
12.0293	858.456	24.6709
12.03516	860.691	24.7393
12.0413	855.892	24.8076
12.0463	850.977	24.876
12.0525	852.029	24.9443
12.0581	847.822	25.0127
12.0642	847.229	25.0811
12.0703	850.734	25.1494
12.0754	855.224	25.2178
12.0815	853.456	25.2861
12.0879	855.726	25.3545
12.0926	860.718	25.4229
12.0982	857.627	25.4912
12.1032	853.8374	25.55957
12.1101	851.453	25.62793
12.11523	848.262	25.6963
12.1224	847.423	25.7646
12.1264	848.1734	25.833
12.1329	851.041	25.9014
12.1375	850.215	25.9697
12.1437	852.733	26.0381
12.1492	858.559	26.1064
12.155	858.204	26.1748
12.1612	854.203	26.2432
12.1668	852.157	26.3115
12.1727	848.0061	26.3799
12.1782	845.426	26.4482
12.1828	845.173	26.5166
12.19004	847.617	26.585
12.1958	845.502	26.65332
12.2021	849.657	26.72168
12.2074	853.707	26.79
12.2122	853.1355	26.8584
12.2179	852.603	26.9268
12.2246	849.164	26.9951
12.2285	844.966	27.0635
12.2356	844.437	27.1318
12.23975	842.923	27.2002
12.2466	840.2074	27.2686
12.2523	840.325	27.3369
12.2579	843.9162	27.4053
12.2642	847.774	27.4736
12.2696	848.67	27.542
12.275	850.758	27.6104
12.2808	848.7832	27.6787
12.2867	844.4314	27.74707
12.292	844.525	27.81543
12.2985	840.794	27.8838
12.3039	836.323	27.9521
12.3084	835.156	28.0205
12.3143	839.553	28.0889
12.32088	842.559	28.1572
12.3264	843.013	28.2256
12.3322	847.967	28.2939
12.3379	847.831	28.3623
12.343	842.856	28.4307
12.35	841.968	28.499
12.35441	841.189	28.5674
12.3604	834.911	28.6357
12.3667	832.45	28.7041
12.3715	837.1806	28.7725
12.3769	840.4707	28.84082
12.383	840.794	28.90918
12.3899	843.894	28.9775
12.39432	845.905	29.0459
12.3999	844.046	29.1143
12.4066	841.757	29.1826
12.4118	840.037	29.251
12.4175	835.049	29.3193
12.4228	829.835	29.3877
12.4298	833.28	29.4561
12.43436	836.576	29.5244
12.4406	836.116	29.5928
12.44615	838.664	29.6611
12.4521	842.931	29.7295
12.4574	842.448	29.7979
12.4624	842.196	29.8662
12.469	840.428	29.93457
12.4743	836.48	30.00293
12.48	828.92	30.0713
12.485	832.136	30.1396
12.4916	832.664	30.208
12.4972	832.211	30.2764
12.5037	835.088	30.3447
12.508	841.174	30.4131
12.5146	840.1004	30.4814
12.5194	843.068	30.5498
12.5252	840.117	30.6182
12.5317	836.6778	30.6865
12.5368	830.704	30.7549
12.5436	829.74	30.8232
12.5489	828.591	30.8916
12.5539	827.785	30.96
12.559	831.624	31.02832
12.5656	832.678	31.09668
12.5715	839.2923	31.165
12.5767	841.235	31.2334
12.5812	839.082	31.3018
12.5877	836.705	31.3701
12.5942	833.238	31.4385
12.5999	831.4	31.5068
12.6063	829.42	31.5752
12.6109	827.497	31.6436
12.6157	827.9856	31.7119
12.6221	831.443	31.7803
12.6279	834.532	31.8486
12.6333	839.735	31.917
12.64	839.952	31.9854
12.6457	834.957	32.0537
12.6521	834.478	32.12207
12.6568	831.578	32.19043
12.6635	827.789	32.2588
12.66886	825.344	32.3271
12.6733	827.586	32.3955
12.6794	827.67	32.4639
12.6843	831.887	32.5322
12.691	837.29	32.6006
12.697	839.175	32.6689
12.7017	835.3493	32.7373
12.70894	833.901	32.8057
12.71383	835.85	32.874
12.7193	829.089	32.9424
12.7249	825.169	33.0107
12.7312	825.394	33.0791
12.7362	825.773	33.1475
12.7417	827.856	33.21582
12.7481	834.969	33.28418
12.7542	837.498	33.3525
12.7588	835.192	33.4209
12.7659	835.306	33.4893
12.7705	835.754	33.5576
12.7764	829.298	33.626
12.7824	824.67	33.6943
12.7879	826.302	33.7627
12.7934	824.5979	33.8311
12.7984	827.239	33.8994
12.8051	833.195	33.9678
12.8107	834.981	34.0361
12.8158	833.23	34.1045
12.8223	833.778	34.1729
12.8267	837.912	34.2412
12.8331	832.125	34.30957
12.8386	826.988	34.37793
12.845	827.287	34.4463
12.8508	823.299	34.5146
12.855	826.699	34.583
12.8616	826.678	34.6514
12.8663	830.391	34.7197
12.8733	833.586	34.7881
12.8789	833.825	34.8564
12.8849	836.2373	34.9248
12.8894	835.899	34.9932
12.8969	830.606	35.0615
12.9016	825.966	35.1299
12.9077	823.126	35.1982
12.91305	826.251	35.2666
12.91875	826.436	35.335
12.9243	828.241	35.40332
12.9293	829.422	35.47168
12.9352	832.906	35.54
12.9409	836.456	35.6084
12.9474	833.805	35.6768
12.95272	832.909	35.7451
12.95903	828.6712	35.8135
12.9639	823.909	35.8818
12.97	825.809	35.9502
12.9748	827.276	36.0186
12.98077	824.512	36.0869
12.987	826.409	36.1553
12.9929	831.533	36.2236
12.9981	833.3952	36.292
13.0046	835.089	36.3604
13.0098	834.727	36.4287
13.0166	832.188	36.49707
13.0225	825.563	36.56543
13.0264	825.991	36.6338
13.0326	825.738	36.7021
13.0382	821.672	36.7705
13.044	823.086	36.8389
13.0494	830.294	36.9072
13.056	833.391	36.9756
13.0614	833.05	37.0439
13.0668	834.099	37.1123
13.072	834.053	37.1807
13.0789	828.425	37.249
13.0842	826.611	37.3174
13.0894	827.872	37.3857
13.0955	823.017	37.4541
13.1011	819.525	37.5225
13.1076	828.699	37.59082
13.1123	830.99	37.65918
13.1177	831.074	37.7275
13.1237	833.723	37.7959
13.1301	834.725	37.8643
13.1348	830.807	37.9326
13.1396	827.588	38.001
13.1467	827.154	38.0693
13.15265	823.394	38.1377
13.1567	819.709	38.2061
13.1638	824.647	38.2744
13.1701	829.857	38.3428
13.175	830.053	38.4111
13.181	832.589	38.4795
13.1864	834.469	38.5479
13.1914	833.244	38.6162
13.1986	831.03	38.68457
13.20281	828.2655	38.75293
13.2097	821.251	38.8213
13.2151	820.326	38.8896
13.22069	822.679	38.958
13.2269	826.565	39.0264
13.2317	830.82	39.0947
13.23769	830.671	39.1631
13.2432	832.018	39.2314
13.2481	833.339	39.2998
13.2544	832.295	39.3682
13.2602	829.151	39.4365
13.2667	824.318	39.5049
13.2712	821.34	39.5732
13.2778	821.733	39.6416
13.2827	822.706	39.71
13.2884	824.538	39.77832
13.2951	828.17	39.84668
13.3008	830.934	39.915
13.30469	834.518	39.9834
13.3093	819.994	40.0127

Data Header:			0.254_hd_dimension_typei_090_r0			Time:	48.7551	s	4/15/2019 3:39:03 PM
Data Acquisition:	Timed
Station Name:	ft40.cfg
Test File Name:	monotonic_0.2540_typei_hd_090_dimension.tst
Displacement	Force	Running Time
mm	N	s
13.3097	820.801	40.0225
13.311	834.404	40.0518
13.314	821.477	40.0811
13.3173	833.911	40.1104
13.3184	818.3205	40.1396
13.322	834.111	40.1689
13.3237	821.5	40.1982
13.3258	831.218	40.2275
13.3292	823.201	40.2568
13.33137	831.158	40.2861
13.3339	823.107	40.31543
13.3363	826.219	40.3447
13.3383	827.068	40.374
13.3403	829.612	40.40332
13.3436	830.7265	40.4326
13.3463	823.4	40.4619
13.348	833.697	40.4912
13.3504	822.47	40.5205
13.3531	832.185	40.5498
13.3552	820.875	40.5791
13.3591	836.5835	40.6084
13.3602	822.541	40.6377
13.36299	832.568	40.667
13.3654	823.339	40.6963
13.3682	831.486	40.7256
13.3702	823.113	40.7549
13.3727	831.707	40.78418
13.3751	828.047	40.8135
13.3773	826.534	40.8428
13.37993	825.209	40.87207
13.3832	823.865	40.9014
13.3852	830.833	40.9307
13.3871	822.314	40.96
13.3893	830.2655	40.9893
13.3918	821.49	41.0186
13.3947	832.101	41.0479
13.398	819.446	41.0771
13.3985	830.653	41.1064
13.4018	824.633	41.1357
13.4051	830.474	41.165
13.4062	822.346	41.1943
13.4096	826.587	41.2236
13.4119	826.067	41.25293
13.4139	825.843	41.2822
13.4172	828.094	41.3115
13.4185	825.052	41.34082
13.4214	832.031	41.3701
13.4237	820.782	41.3994
13.427	830.263	41.4287
13.4283	821.848	41.458
13.4313	834.765	41.4873
13.43326	819.481	41.5166
13.4364	831.81	41.5459
13.4379	821.716	41.5752
13.4408	831.849	41.6045
13.4436	823.02	41.6338
13.4462	830.39	41.6631
13.4475	825.773	41.6924
13.4509	826.403	41.72168
13.4534	824.858	41.751
13.4555	824.862	41.7803
13.458	830.062	41.80957
13.46195	821.987	41.8389
13.4635	831.238	41.8682
13.4649	821.444	41.8975
13.4689	832.716	41.9268
13.4692	817.235	41.9561
13.4728	834.308	41.9854
13.4757	820.497	42.0146
13.477	831.967	42.0439
13.4813	818.797	42.0732
13.48261	832.775	42.1025
13.4855	821.687	42.1318
13.4877	826.3125	42.1611
13.4892	823.888	42.19043
13.4918	828.547	42.2197
13.4949	827.734	42.249
13.4981	824.44	42.27832
13.4993	828.472	42.3076
13.5019	824.784	42.3369
13.5046	829.498	42.3662
13.507	819.07	42.3955
13.5093	831.569	42.4248
13.5121	821.648	42.4541
13.5145	828.972	42.4834
13.5165	819.1228	42.5127
13.5189	831.9743	42.542
13.5209	821.36	42.5713
13.5241	829.454	42.6006
13.5273	822.0838	42.6299
13.5289	828.4342	42.65918
13.5313	825.539	42.6885
13.5324	826.112	42.7178
13.5368	827.659	42.74707
13.53903	825.399	42.7764
13.5414	827.255	42.8057
13.544	822.845	42.835
13.5458	830.235	42.8643
13.5496	822.056	42.8936
13.5508	830.7915	42.9229
13.5541	821.727	42.9521
13.5569	830.137	42.9814
13.5583	819.844	43.0107
13.5606	827.072	43.04
13.5629	823.946	43.0693
13.5661	828.945	43.0986
13.5676	823.153	43.12793
13.5711	822.072	43.1572
13.5722	828.122	43.1865
13.5758	822.456	43.21582
13.5771	828.749	43.2451
13.5796	820.08	43.2744
13.5821	834.306	43.3037
13.5849	818.851	43.333
13.5869	827.6734	43.3623
13.5902	818.911	43.3916
13.59232	833.438	43.4209
13.5951	819.828	43.4502
13.5977	830.912	43.4795
13.6004	822.927	43.5088
13.6026	828.7818	43.5381
13.6037	822.855	43.5674
13.60759	825.183	43.59668
13.6097	827.079	43.626
13.612	824.896	43.6553
13.6143	827.85	43.68457
13.6168	821.168	43.7139
13.61975	828.852	43.7432
13.6217	816.933	43.7725
13.6245	831.655	43.8018
13.6263	820.658	43.8311
13.6283	831.869	43.8604
13.6312	815.906	43.8896
13.6337	830.15	43.9189
13.6363	819.8692	43.9482
13.6381	829.102	43.9775
13.6411	820.142	44.0068
13.6432	828.4682	44.0361
13.6458	823.755	44.06543
13.6478	823.431	44.0947
13.65235	823.08	44.124
13.6532	824.401	44.15332
13.6557	828.3764	44.1826
13.6582	820.079	44.2119
13.6611	827.273	44.2412
13.6631	820.792	44.2705
13.66589	829.717	44.2998
13.6676	817.491	44.3291
13.6708	831.505	44.3584
13.67407	819.559	44.3877
13.6748	829.551	44.417
13.67805	817.794	44.4463
13.6805	829.195	44.4756
13.6832	822.166	44.5049
13.6846	824.504	44.53418
13.68747	824.424	44.5635
13.6899	825.634	44.5928
13.6929	824.045	44.62207
13.6955	821.703	44.6514
13.69739	828.15	44.6807
13.6994	821.041	44.71
13.7023	828.259	44.7393
13.7036	819.113	44.7686
13.7081	828.812	44.7979
13.7107	817.853	44.8271
13.7125	826.4314	44.8564
13.7148	820.158	44.8857
13.7168	827.259	44.915
13.719	820.722	44.9443
13.722	823.0578	44.9736
13.7245	823.567	45.00293
13.7272	824.852	45.0322
13.7291	823.667	45.0615
13.73091	820.375	45.09082
13.735	828.6546	45.1201
13.7368	818.931	45.1494
13.7388	824.981	45.1787
13.74109	815.464	45.208
13.7436	832.283	45.2373
13.74646	816.224	45.2666
13.7491	827.275	45.2959
13.7517	816.015	45.3252
13.7538	828.704	45.3545
13.7564	818.01	45.3838
13.7584	824.784	45.4131
13.7614	821.794	45.4424
13.7632	826.558	45.47168
13.766	820.965	45.501
13.7687	819.252	45.5303
13.7712	825.773	45.55957
13.773	820.794	45.5889
13.7757	827.527	45.6182
13.7789	818.859	45.6475
13.7801	828.452	45.6768
13.78278	815.6228	45.7061
13.7857	828.588	45.7354
13.7884	816.951	45.7646
13.7902	828.634	45.7939
13.7938	816.114	45.8232
13.7944	827.327	45.8525
13.7977	817.631	45.8818
13.8003	824.655	45.9111
13.80237	818.644	45.94043
13.806	824.084	45.9697
13.8081	823.09	45.999
13.8094	818.803	46.02832
13.8126	820.602	46.0576
13.8151	819.647	46.0869
13.817	825.013	46.1162
13.8193	813.864	46.1455
13.8219	825.088	46.1748
13.82444	816.684	46.2041
13.827	824.954	46.2334
13.82935	811.782	46.2627
13.8313	825.067	46.292
13.8347	817.169	46.3213
13.8365	822.614	46.3506
13.839	815.148	46.3799
13.8414	818.752	46.40918
13.8443	816.6405	46.4385
13.8528	-101.488	46.4678
13.8537	-52.4595	46.49707
13.8535	-42.8999	46.5264
13.8545	-41.5937	46.5557
13.85708	-50.1443	46.585
13.8597	-40.6892	46.6143
13.861	-51.1421	46.6436
13.8641	-40.8888	46.6729
13.8663	-49.837	46.7021
13.8697	-39.7872	46.7314
13.8707	-49.552	46.7607
13.8739	-42.1812	46.79
13.877	-48.6584	46.8193
13.8787	-41.2168	46.8486
13.8804	-44.9762	46.87793
13.8837	-49.1493	46.9072
13.8862	-43.5471	46.9365
13.8887	-47.8836	46.96582
13.8898	-41.9569	46.9951
13.894	-50.4555	47.0244
13.895	-38.3731	47.0537
13.8974	-51.77486	47.083
13.9007	-40.7503	47.1123
13.90314	-53.8033	47.1416
13.90451	-38.30835	47.1709
13.9081	-51.217	47.2002
13.9108	-41.2384	47.2295
13.9141	-49.707	47.2588
13.9146	-40.3538	47.2881
13.9182	-48.61319	47.3174
13.9204	-45.887	47.34668
13.9237	-45.10096	47.376
13.9241	-43.3156	47.4053
13.9271	-44.0751	47.43457
13.92918	-49.2894	47.4639
13.9325	-40.059	47.4932
13.9351	-49.1386	47.5225
13.9377	-39.7877	47.5518
13.94	-51.3682	47.5811
13.9428	-36.8681	47.6104
13.9444	-51.6225	47.6396
13.947	-40.92244	47.6689
13.9495	-51.0938	47.6982
13.95206	-39.9001	47.7275
13.954	-49.5623	47.7568
13.9575	-41.0655	47.7861
13.9582	-46.70512	47.81543
13.9614	-44.9276	47.8447
13.9632	-47.9367	47.874
13.9662	-45.4913	47.90332
13.9687	-40.7752	47.9326
13.9718	-48.55	47.9619
13.9742	-42.3628	47.9912
13.9759	-50.8045	48.0205
13.97915	-39.8304	48.0498
13.9815	-50.1961	48.0791
13.9845	-40.081	48.1084
13.9855	-48.3245	48.1377
13.9885	-41.8925	48.167
13.9901	-51.2462	48.1963
13.9934	-44.4513	48.2256
13.9961	-44.9486	48.2549
13.998	-45.2489	48.28418
14.0009	-46.9528	48.3135
14.0029	-47.3393	48.3428
14.0043	-43.6249	48.37207
14.0074	-50.8152	48.4014
14.0104	-42.6298	48.4307
14.0134	-47.2688	48.46
14.0148	-39.3305	48.4893
14.0174	-52.1347	48.5186
14.01998	-40.4169	48.5479
14.0221	-50.2889	48.5771
14.0247	-40.9202	48.6064
14.0277	-49.6628	48.6357
14.0289	-40.5347	48.665
14.0318	-46.37077	48.6943
14.03477	-45.1003	48.7236
14.0366	-42.1238	48.7432