File: data/processed_data_files/tensile/0.254_solid_dimension_typei_4545_r(4).dat
MTS793|BTW|ENU|1|2|.|/|:|1|0|0|A

Data Header:			0.254_solid_dimension_typei_4545_r0			Time:	20.0181	s	4/14/2019 4:52:19 AM
Data Acquisition:	Timed
Station Name:	ft40.cfg
Test File Name:	monotonic_0.2540_typei_solid_4545_dimension.tst
Displacement	Force	Running Time
mm	N	s
9.95819	-139.38	0.0227051
9.96004	-139.097	0.0910645
9.96588	-136.3	0.159424
9.97157	-129.203	0.2277832
9.97694	-122.459	0.296143
9.98177	-115.807	0.364502
9.98786	-107.7032	0.432861
9.99423	-105.702	0.5012207
9.99974	-100.169	0.56958
10.0053	-99.8208	0.637939
10.0112	-102.25	0.706299
10.0154	-104.423	0.7746582
10.0218	-103.21	0.843018
10.0279	-95.9694	0.911377
10.03273	-91.7524	0.979736
10.039	-82.0613	1.0481
10.0452	-74.4744	1.11646
10.0509	-70.2852	1.18481
10.0557	-63.9049	1.25317
10.0623	-59.8899	1.32153
10.0677	-64.50618	1.38989
10.0741	-66.3585	1.458252
10.0801	-64.9233	1.52661
10.0849	-60.162	1.59497
10.09047	-56.6262	1.66333
10.0968	-48.0794	1.73169
10.1013	-40.2859	1.80005
10.1071	-35.1113	1.86841
10.1127	-25.9651	1.93677
10.12	-22.9056	2.005127
10.1235	-24.9697	2.07349
10.13047	-26.6376	2.14185
10.1356	-23.1319	2.21021
10.142	-21.1279	2.27856
10.1479	-20.7439	2.34692
10.1536	-11.7089	2.41528
10.1583	-3.27048	2.48364
10.1636	2.37942	2.552002
10.1705	11.6006	2.62036
10.1762	17.1326	2.68872
10.18193	14.7427	2.75708
10.1882	16.1924	2.82544
10.1933	20.5298	2.8938
10.19838	16.8401	2.96216
10.2044	17.75642	3.03052
10.2104	25.176	3.098877
10.2171	31.2237	3.16724
10.2217	39.0495	3.2356
10.2277	48.0116	3.30396
10.2325	56.08503	3.37231
10.2392	53.1423	3.44067
10.2447	57.2136	3.50903
10.2506	64.2272	3.57739
10.25586	59.5488	3.645752
10.26128	61.0403	3.71411
10.2676	64.8577	3.78247
10.2717	68.588	3.85083
10.2783	75.636	3.91919
10.2843	86.9245	3.98755
10.2898	91.3324	4.05591
10.2964	94.9436	4.12427
10.3019	101.951	4.192627
10.3075	106.728	4.26099
10.3127	102.668	4.32935
10.3187	104.024	4.39771
10.3238	105.889	4.46606
10.3298	107.0192	4.53442
10.3361	116.286	4.60278
10.34013	122.835	4.67114
10.3477	127.463	4.739502
10.3521	132.218	4.80786
10.3582	142.656	4.87622
10.3646	147.847	4.94458
10.3697	144.859	5.01294
10.3749	146.37	5.0813
10.381	146.097	5.14966
10.3865	148.788	5.21802
10.3926	152.556	5.286377
10.3979	161.774	5.35474
10.4042	164.97	5.4231
10.4103	170.901	5.49146
10.4153	181.693	5.55981
10.421	186.981	5.62817
10.4271	186.581	5.69653
10.4324	188.496	5.76489
10.4379	187.453	5.833252
10.4438	189.751	5.90161
10.44921	191.377	5.96997
10.4558	194.781	6.03833
10.45984	201.077	6.10669
10.4664	209.088	6.17505
10.4727	220.438	6.24341
10.47787	226.776	6.31177
10.4839	229.378	6.380127
10.4887	232.09	6.44849
10.49472	231.0016	6.51685
10.5013	233.692	6.58521
10.5066	231.729	6.65356
10.5135	233.26	6.72192
10.5181	237.556	6.79028
10.5236	247.493	6.85864
10.5298	256.545	6.927002
10.5349	264.216	6.99536
10.5408	269.121	7.06372
10.547	272.233	7.13208
10.5516	274.127	7.20044
10.5579	274.577	7.2688
10.5636	273.71	7.33716
10.5689	271.9252	7.40552
10.5744	276.333	7.473877
10.5804	285.218	7.54224
10.5862	293.6933	7.6106
10.5916	302.707	7.67896
10.5978	309.287	7.74731
10.6023	313.341	7.81567
10.6091	314.624	7.88403
10.6151	317.928	7.95239
10.6201	315.788	8.020752
10.626	313.637	8.08911
10.6323	316.6329	8.15747
10.6374	322.682	8.22583
10.6432	327.316	8.29419
10.6496	336.743	8.36255
10.6541	345.663	8.43091
10.6598	352.259	8.49927
10.6655	358.323	8.567627
10.6713	362.173	8.63599
10.6768	358.524	8.70435
10.6825	354.155	8.77271
10.6894	355.328	8.84106
10.6939	359.016	8.90942
10.701	363.164	8.97778
10.7053	371.295	9.04614
10.71242	382.272	9.114502
10.7168	388.689	9.18286
10.7219	398.138	9.25122
10.729	404.34	9.31958
10.735	399.669	9.38794
10.7401	396.621	9.4563
10.7454	399.085	9.52466
10.7517	398.765	9.59302
10.7573	400.71	9.661377
10.7617	408.206	9.72974
10.7686	417.352	9.7981
10.7739	423.824	9.86646
10.7803	434.7384	9.93481
10.7861	443.251	10.0032
10.7912	440.85	10.0715
10.798	441.318	10.1399
10.8032	444.189	10.2083
10.8089	439.89	10.2766
10.8143	438.475	10.345
10.8199	443.775	10.41333
10.8258	449.936	10.4817
10.8314	460.367	10.55
10.8373	471.873	10.6184
10.842	478.271	10.6868
10.8478	480.581	10.7551
10.8549	481.751	10.8235
10.8605	486.292	10.8918
10.8651	480.013	10.9602
10.8716	478.1604	11.0286
10.8763	482.635	11.0969
10.8831	486.1	11.1653
10.8882	492.8	11.2336
10.8948	504.466	11.302
10.8989	514.126	11.3704
10.9043	515.479	11.4387
10.9115	521.559	11.50708
10.916	526.881	11.5754
10.9224	523.256	11.6438
10.9285	520.155	11.7122
10.9342	520.896	11.7805
10.9398	520.438	11.8489
10.945	527.4353	11.9172
10.9508	537.019	11.9856
10.9561	545.078	12.054
10.9617	551.008	12.1223
10.9683	559.853	12.1907
10.9737	564.905	12.259
10.9783	561.84	12.3274
10.9846	560.251	12.3958
10.991	559.947	12.4641
10.9965	559.2312	12.5325
11.0022	562.711	12.60083
11.0079	569.109	12.6692
11.0141	576.144	12.7375
11.0185	584.095	12.8059
11.0253	594.539	12.8743
11.0303	599.352	12.9426
11.0365	601.092	13.011
11.042	600.72	13.0793
11.04851	597.457	13.1477
11.0534	598.07	13.2161
11.05914	597.496	13.2844
11.0647	601.0896	13.3528
11.071	606.701	13.4211
11.076	615.432	13.4895
11.0815	627.898	13.5579
11.0878	634.722	13.6262
11.093	638.306	13.69458
11.0994	639.875	13.7629
11.1048	637.0141	13.8313
11.1101	637.072	13.8997
11.1154	635.218	13.968
11.1215	636.5108	14.0364
11.1273	638.686	14.1047
11.1332	649.105	14.1731
11.13861	658.892	14.2415
11.1441	666.777	14.3098
11.15037	673.857	14.3782
11.1563	676.636	14.4465
11.1603	676.235	14.5149
11.168	677.081	14.5833
11.17216	672.934	14.6516
11.1798	670.313	14.72
11.1848	673.49	14.78833
11.1897	681.89	14.8567
11.1958	690.626	14.925
11.2009	699.551	14.9934
11.20707	707.461	15.0618
11.2124	712.99	15.1301
11.2183	715.2135	15.1985
11.2242	714.141	15.2668
11.2301	710.112	15.3352
11.2351	706.954	15.4036
11.2408	706.795	15.4719
11.2473	713.561	15.5403
11.2523	718.398	15.6086
11.2584	728.616	15.677
11.2641	739.379	15.7454
11.2701	743.96	15.8137
11.2759	749.3092	15.88208
11.2805	750.927	15.9504
11.2859	748.5274	16.0188
11.2929	741.846	16.0872
11.2985	742.004	16.1555
11.305	746.362	16.2239
11.31	748.186	16.2922
11.3145	758.71	16.3606
11.3209	769.125	16.429
11.327	775.697	16.4973
11.3323	781.368	16.5657
11.3384	787.102	16.634
11.34438	783.99	16.7024
11.3485	779.231	16.7708
11.3553	777.604	16.8391
11.3613	781.094	16.9075
11.366	779.21	16.97583
11.3724	786.61	17.0442
11.3776	798.059	17.1125
11.3844	805.268	17.1809
11.38883	813.822	17.2493
11.39536	818.882	17.3176
11.4007	816.352	17.386
11.4058	812.702	17.4543
11.41221	815.413	17.5227
11.4181	812.698	17.5911
11.4237	810.172	17.6594
11.429	817.446	17.7278
11.4353	824.477	17.7961
11.4399	831.57	17.8645
11.4458	840.032	17.9329
11.4519	849.066	18.0012
11.458	847.969	18.06958
11.4633	847.808	18.1379
11.4694	850.198	18.2063
11.4746	847.564	18.2747
11.48	843.3222	18.343
11.4871	845.034	18.4114
11.4926	851.05	18.4797
11.4974	858.691	18.5481
11.5035	868.425	18.6165
11.5084	875.119	18.6848
11.5154	877.791	18.7532
11.5204	879.305	18.8215
11.5253	883.975	18.8899
11.5314	878.1	18.9583
11.5384	875.046	19.0266
11.5445	875.608	19.095
11.5498	878.3938	19.16333
11.5549	883.182	19.2317
11.5607	892.862	19.3
11.5655	899.012	19.3684
11.571	904.375	19.4368
11.578	909.152	19.5051
11.5833	914.116	19.5735
11.589	910.9588	19.6418
11.5941	907.1189	19.7102
11.60055	905.852	19.7786
11.6056	906.548	19.8469
11.6116	909.457	19.9153
11.61654	914.906	19.9836
11.6203	927.6449	20.0129

Data Header:			0.254_solid_dimension_typei_4545_r0			Time:	40.0176	s	4/14/2019 4:52:39 AM
Data Acquisition:	Timed
Station Name:	ft40.cfg
Test File Name:	monotonic_0.2540_typei_solid_4545_dimension.tst
Displacement	Force	Running Time
mm	N	s
11.6211	920.981	20.0227
11.6261	915.32	20.0911
11.6323	915.98	20.1594
11.6379	921.7851	20.2278
11.64379	927.466	20.2961
11.6491	937.101	20.3645
11.6551	944.8526	20.4329
11.661	951.448	20.5012
11.6657	947.971	20.56958
11.67292	949.75	20.6379
11.678	950.577	20.7063
11.6834	945.307	20.7747
11.6898	944.2973	20.843
11.6954	947.188	20.9114
11.7006	948.075	20.9797
11.7057	958.036	21.0481
11.7114	966.58	21.1165
11.7174	972.7041	21.1848
11.7228	975.14	21.2532
11.7289	977.396	21.3215
11.7345	978.9386	21.3899
11.7409	974.718	21.4583
11.7453	971.107	21.5266
11.751	970.506	21.595
11.7586	973.142	21.66333
11.7627	978.354	21.7317
11.7693	986.982	21.8
11.7739	991.392	21.8684
11.7813	996.674	21.9368
11.7858	1002.32	22.0051
11.791	1003.9	22.0735
11.798	1000.01	22.1418
11.80304	997.015	22.2102
11.8084	994.476	22.2786
11.8139	995.68	22.3469
11.8202	998.763	22.4153
11.8257	1004.36	22.4836
11.8316	1010.18	22.552
11.8375	1017.05	22.6204
11.8435	1025.99	22.6887
11.8492	1026.26	22.75708
11.8548	1024.87	22.8254
11.8603	1021.56	22.8938
11.866	1016.71	22.9622
11.87162	1017.35	23.0305
11.8768	1018.97	23.0989
11.8826	1022.44	23.1672
11.8894	1026.82	23.2356
11.89525	1034.2	23.304
11.89946	1043.11	23.3723
11.905	1045.45	23.4407
11.911	1046.52	23.509
11.9173	1043.63	23.5774
11.9217	1039.35	23.6458
11.9287	1037.99	23.7141
11.9337	1037.49	23.7825
11.9403	1036.985	23.85083
11.9453	1040.47	23.9192
11.9513	1048.9	23.9875
11.9568	1057.46	24.0559
11.9628	1060.06	24.1243
11.9674	1064.25	24.1926
11.9742	1061.21	24.261
11.9799	1057.29	24.3293
11.9851	1056.845	24.3977
11.9909	1053.95	24.4661
11.997	1051.48	24.5344
12.0024	1053.27	24.6028
12.0083	1062.44	24.6711
12.0139	1068.34	24.7395
12.02011	1073.63	24.8079
12.0251	1079.69	24.8762
12.0298	1079.546	24.94458
12.0366	1076.667	25.0129
12.04215	1075.45	25.0813
12.0486	1070.61	25.1497
12.0526	1063.83	25.218
12.0581	1066.74	25.2864
12.0646	1073.82	25.3547
12.0706	1078.1	25.4231
12.077	1082.74	25.4915
12.0833	1090.69	25.5598
12.0875	1089.91	25.6282
12.0937	1092.82	25.6965
12.10041	1090.57	25.7649
12.1053	1085.13	25.8333
12.1107	1076.51	25.9016
12.1158	1077.3	25.97
12.121	1083.83	26.03833
12.1277	1081.91	26.1067
12.13275	1088.89	26.175
12.1399	1096.81	26.2434
12.1439	1100.26	26.3118
12.1503	1101.71	26.3801
12.1566	1101.73	26.4485
12.1615	1098.13	26.5168
12.1675	1087.33	26.5852
12.1731	1087.42	26.6536
12.1786	1090.15	26.7219
12.1859	1089.14	26.7903
12.191	1094.17	26.8586
12.1969	1103.07	26.927
12.202	1106.73	26.9954
12.20785	1108.7	27.0637
12.21333	1110.57	27.13208
12.2189	1106.73	27.2004
12.2256	1098.71	27.2688
12.2309	1097.88	27.3372
12.2361	1096.28	27.4055
12.2414	1094.92	27.4739
12.2467	1096.98	27.5422
12.2535	1103.47	27.6106
12.2587	1110.3	27.679
12.2645	1112.95	27.7473
12.27017	1117.44	27.8157
12.2761	1114.34	27.884
12.28195	1109.25	27.9524
12.2871	1106.54	28.0208
12.293	1103.403	28.0891
12.2981	1099.167	28.1575
12.3044	1098.6	28.22583
12.3113	1103.5	28.2942
12.3152	1109.28	28.3625
12.3216	1114.07	28.4309
12.3277	1119.88	28.4993
12.3327	1119.79	28.5676
12.3384	1115.12	28.636
12.3446	1114.31	28.7043
12.3505	1108.21	28.7727
12.3547	1103.49	28.8411
12.3603	1101.96	28.9094
12.3677	1103.75	28.9778
12.3727	1107.64	29.0461
12.378	1115.44	29.1145
12.3836	1118.53	29.1829
12.3891	1120.77	29.2512
12.3942	1120.62	29.31958
12.4007	1119.14	29.3879
12.4071	1113.68	29.4563
12.4133	1108.36	29.5247
12.4182	1103.994	29.593
12.4246	1102.97	29.6614
12.4303	1108.02	29.7297
12.43538	1112.48	29.7981
12.4412	1116.07	29.8665
12.4459	1118.49	29.9348
12.4524	1123.38	30.0032
12.4583	1122.1	30.0715
12.4639	1116.51	30.1399
12.4697	1113.99	30.2083
12.4748	1107.84	30.2766
12.4811	1104.51	30.345
12.4863	1106.59	30.41333
12.4919	1111.12	30.4817
12.4984	1113.13	30.55
12.5049	1116	30.6184
12.50895	1122.415	30.6868
12.5144	1123.85	30.7551
12.5211	1120.96	30.8235
12.5254	1117.76	30.8918
12.532	1112.13	30.9602
12.53794	1107.49	31.0286
12.5436	1107.37	31.0969
12.5489	1108	31.1653
12.5555	1107.4	31.2336
12.5611	1113.35	31.302
12.5655	1122.56	31.3704
12.5723	1123.41	31.4387
12.5785	1122.96	31.50708
12.5845	1121.46	31.5754
12.5886	1114.8	31.6438
12.5951	1109.397	31.7122
12.60035	1107.61	31.7805
12.6068	1105.36	31.8489
12.612	1104.77	31.9172
12.61896	1110.18	31.9856
12.6233	1119.99	32.054
12.6298	1121.278	32.1223
12.6352	1121.85	32.1907
12.6413	1123.86	32.259
12.6468	1118.77	32.3274
12.6522	1113	32.3958
12.6584	1109.45	32.4641
12.6638	1105.67	32.5325
12.6692	1100.39	32.60083
12.6751	1106.21	32.6692
12.6811	1114.91	32.7375
12.6866	1116.85	32.8059
12.692	1120.12	32.8743
12.6969	1122.71	32.9426
12.703	1119.9	33.011
12.7095	1116.165	33.0793
12.7147	1111.65	33.1477
12.7206	1105.91	33.2161
12.7259	1099.31	33.2844
12.7315	1105.05	33.3528
12.73749	1110.36	33.4211
12.7434	1112.81	33.4895
12.7488	1118.36	33.5579
12.7547	1122.99	33.6262
12.7605	1121.5	33.69458
12.7651	1118.66	33.7629
12.77107	1113.75	33.8313
12.7779	1107.12	33.8997
12.7815	1099.947	33.968
12.789	1101.83	34.0364
12.7944	1105.78	34.1047
12.7997	1108	34.1731
12.8051	1113.43	34.2415
12.8116	1119.43	34.3098
12.8169	1121.57	34.3782
12.8228	1118.68	34.4465
12.8295	1114.46	34.5149
12.835	1108.43	34.5833
12.84001	1101.59	34.6516
12.8457	1101	34.72
12.8512	1102.12	34.78833
12.8566	1104.42	34.8567
12.8642	1108.89	34.925
12.8681	1113.95	34.9934
12.8735	1119.63	35.0618
12.8794	1120.069	35.1301
12.8867	1117.74	35.1985
12.89052	1112.53	35.2668
12.8983	1104.42	35.3352
12.90329	1101.57	35.4036
12.9083	1099.5	35.4719
12.9136	1100.25	35.5403
12.9198	1105.27	35.6086
12.9252	1109	35.677
12.9308	1115.1	35.7454
12.9365	1121.03	35.8137
12.9426	1117.65	35.88208
12.9486	1112	35.9504
12.9538	1106.88	36.0188
12.9604	1104.12	36.0872
12.9649	1098.16	36.1555
12.9708	1098.96	36.2239
12.9762	1100.48	36.2922
12.9828	1103.09	36.3606
12.9884	1112.43	36.429
12.9941	1118.91	36.4973
13.0001	1115.29	36.5657
13.00439	1114.77	36.634
13.0114	1111.89	36.7024
13.0169	1106.32	36.7708
13.0229	1101	36.8391
13.0284	1098.38	36.9075
13.0323	1096.592	36.97583
13.0394	1098.67	37.0442
13.04504	1105.83	37.1125
13.0508	1114.65	37.1809
13.0555	1112.9	37.2493
13.0632	1113.24	37.3176
13.06741	1114.67	37.386
13.0741	1109.97	37.4543
13.07929	1102.51	37.5227
13.0847	1099.19	37.5911
13.0917	1095.67	37.6594
13.0962	1094.75	37.7278
13.1021	1103.01	37.7961
13.10839	1108.45	37.8645
13.1133	1108.73	37.9329
13.1185	1112.32	38.0012
13.1245	1117.15	38.06958
13.1306	1112.15	38.1379
13.1361	1105.95	38.2063
13.1417	1100.44	38.2747
13.1482	1096.93	38.343
13.1529	1093.63	38.4114
13.1587	1096.76	38.4797
13.165	1104.88	38.5481
13.16967	1103.84	38.6165
13.1764	1110.44	38.6848
13.1812	1115.72	38.7532
13.1871	1112.72	38.8215
13.1932	1107.09	38.8899
13.1993	1104.29	38.9583
13.204	1098.017	39.0266
13.2094	1093.45	39.095
13.21629	1094.66	39.16333
13.2218	1098.18	39.2317
13.2277	1098.985	39.3
13.2331	1104.39	39.3684
13.2389	1113.07	39.4368
13.2454	1114.03	39.5051
13.2509	1110.411	39.5735
13.2558	1107.3	39.6418
13.2612	1099.47	39.7102
13.2671	1095.1	39.7786
13.2717	1095	39.8469
13.2778	1093.93	39.9153
13.2841	1094.47	39.9836
13.28644	1113.11	40.0129

Data Header:			0.254_solid_dimension_typei_4545_r0			Time:	60.019	s	4/14/2019 4:52:59 AM
Data Acquisition:	Timed
Station Name:	ft40.cfg
Test File Name:	monotonic_0.2540_typei_solid_4545_dimension.tst
Displacement	Force	Running Time
mm	N	s
13.2875	1098.71	40.0227
13.29266	1094.9	40.0911
13.2993	1092.047	40.1594
13.3047	1092.5	40.2278
13.31	1100.5	40.2961
13.3168	1105.6	40.3645
13.3211	1106.09	40.4329
13.3277	1109.17	40.5012
13.333	1116.02	40.56958
13.33942	1107.87	40.6379
13.3455	1101.56	40.7063
13.3497	1097.7	40.7747
13.3556	1091.45	40.843
13.362	1091.78	40.9114
13.3672	1094.3	40.9797
13.3734	1099.588	41.0481
13.3791	1101.22	41.1165
13.3855	1107.45	41.1848
13.3902	1113.06	41.2532
13.3964	1109.42	41.3215
13.4009	1105.47	41.3899
13.4067	1101.71	41.4583
13.4122	1093.63	41.5266
13.4182	1090.78	41.595
13.4247	1092.19	41.66333
13.4292	1094.07	41.7317
13.4356	1096.03	41.8
13.442	1104.96	41.8684
13.4469	1111.64	41.9368
13.4523	1108.93	42.0051
13.4588	1108.29	42.0735
13.4632	1103.85	42.1418
13.4701	1096.64	42.2102
13.4763	1091.79	42.2786
13.4808	1090.86	42.3469
13.4861	1090.43	42.4153
13.4939	1092.28	42.4836
13.4982	1101.785	42.552
13.5039	1109.89	42.6204
13.5101	1109.41	42.6887
13.5155	1110.12	42.75708
13.5216	1106	42.8254
13.5259	1101.095	42.8938
13.533	1095.225	42.9622
13.53804	1091.36	43.0305
13.54389	1089.759	43.0989
13.5499	1087.56	43.1672
13.5551	1095.62	43.2356
13.55999	1102.39	43.304
13.5671	1107.09	43.3723
13.57203	1108.96	43.4407
13.5783	1108.96	43.509
13.58334	1105.39	43.5774
13.5886	1100.04	43.6458
13.5958	1092.61	43.7141
13.6014	1086.99	43.7825
13.6067	1087.2	43.85083
13.6126	1091.32	43.9192
13.618	1098.31	43.9875
13.6232	1103.23	44.0559
13.6294	1107.88	44.1243
13.6361	1107.39	44.1926
13.641	1107.86	44.261
13.6462	1103.516	44.3293
13.6524	1094.99	44.3977
13.6572	1086.65	44.4661
13.6641	1086.92	44.5344
13.6692	1089.35	44.6028
13.6756	1092.16	44.6711
13.6815	1098.83	44.7395
13.6867	1105.48	44.8079
13.6918	1108.5	44.8762
13.6976	1110.01	44.94458
13.7038	1105.624	45.0129
13.7095	1097.04	45.0813
13.715	1091.34	45.1497
13.72	1087.188	45.218
13.7261	1087.22	45.2864
13.7316	1086.26	45.3547
13.73645	1094.6	45.4231
13.744	1099.39	45.4915
13.75	1104.05	45.5598
13.756	1109.09	45.6282
13.7605	1107.81	45.6965
13.7662	1099.92	45.7649
13.7724	1093.32	45.8333
13.7773	1092.09	45.9016
13.7823	1086.56	45.97
13.7884	1085.34	46.03833
13.795	1090.9	46.1067
13.8011	1094.84	46.175
13.8059	1102.09	46.2434
13.8118	1107.53	46.3118
13.8173	1107.98	46.3801
13.8228	1100.82	46.4485
13.8287	1098.38	46.5168
13.835	1095.22	46.5852
13.8398	1089.42	46.6536
13.8451	1084.75	46.7219
13.8506	1086.548	46.7903
13.8577	1088.49	46.8586
13.863	1097.516	46.927
13.8687	1104.45	46.9954
13.87418	1107	47.0637
[...]
14.43222	1094.7	53.7629
14.4385	1090.29	53.8313
14.4448	1088.25	53.8997
14.45	1081.2	53.968
14.4557	1076.82	54.0364
14.4613	1082.9	54.1047
14.4664	1086.799	54.1731
14.4723	1091.123	54.2415
14.4785	1100.18	54.3098
14.4838	1101.92	54.3782
14.4905	1097.3	54.4465
14.4941	1093.56	54.5149
14.5014	1092.31	54.5833
14.50705	1082.31	54.6516
14.5126	1078.5	54.72
14.51806	1081.07	54.78833
14.5243	1081.83	54.8567
14.5285	1087.7	54.925
14.5361	1095.14	54.9934
14.5416	1098.948	55.0618
14.5464	1097.35	55.1301
14.5531	1097.56	55.1985
14.5586	1096.07	55.2668
14.5639	1087	55.3352
14.5692	1080.91	55.4036
14.5757	1079.563	55.4719
14.5806	1079.99	55.5403
14.586	1084.47	55.6086
14.592	1090.14	55.677
14.5981	1096.06	55.7454
14.6039	1096.978	55.8137
14.6094	1100.02	55.88208
14.6155	1098.37	55.9504
14.62107	1090.97	56.0188
14.6274	1085.01	56.0872
14.6314	1079.4	56.1555
14.6375	1079.14	56.2239
14.6445	1079.59	56.2922
14.6497	1085.9	56.3606
14.6546	1091.41	56.429
14.6604	1095.47	56.4973
14.6665	1101.21	56.5657
14.672	1098.67	56.634
14.6771	1093.752	56.7024
14.6823	1087.39	56.7708
14.6894	1079.78	56.8391
14.695	1078.77	56.9075
14.7	1079.24	56.97583
14.7061	1081.84	57.0442
14.7113	1086	57.1125
14.7187	1092.46	57.1809
14.7234	1097.4	57.2493
14.729	1101.1	57.3176
14.7348	1098.56	57.386
14.7415	1092.49	57.4543
14.7468	1085.95	57.5227
14.7512	1083.35	57.5911
14.7571	1078.719	57.6594
14.7635	1077.4	57.7278
14.7698	1080.59	57.7961
14.7741	1087.95	57.8645
14.7799	1095.98	57.9329
14.7859	1098.63	58.0012
14.7915	1101.28	58.06958
14.7968	1095.4	58.1379
14.8034	1089.89	58.2063
14.8079	1084.16	58.2747
14.81401	1081.063	58.343
14.8209	1076.18	58.4114
14.8263	1078.158	58.4797
14.8313	1086.18	58.5481
14.8369	1088.61	58.6165
14.8428	1093.06	58.6848
14.8484	1099.13	58.7532
14.8544	1097.31	58.8215
14.8607	1093.85	58.8899
14.8654	1089.48	58.9583
14.8714	1081.995	59.0266
14.8763	1074.39	59.095
14.8825	1075.35	59.16333
14.8884	1081.691	59.2317
14.894	1085.72	59.3
14.9002	1092.81	59.3684
14.90591	1097.51	59.4368
14.911	1097	59.5051
14.91648	1097.25	59.5735
14.9224	1095.13	59.6418
14.9291	1083.969	59.7102
14.9341	1076.24	59.7786
14.9406	1075.78	59.8469
14.9456	1078.67	59.9153
14.9513	1078.84	59.9836
14.9535	1092.24	60.0129

Data Header:			0.254_solid_dimension_typei_4545_r0			Time:	72.5706	s	4/14/2019 4:53:11 AM
Data Acquisition:	Timed
Station Name:	ft40.cfg
Test File Name:	monotonic_0.2540_typei_solid_4545_dimension.tst
Displacement	Force	Running Time
mm	N	s
14.954	1084.74	60.0227
14.9583	1097.91	60.0715
14.9617	1096.28	60.1204
14.96615	1079.47	60.1692
14.9703	1076.79	60.218
14.9753	1090.96	60.2668
14.9793	1098.65	60.3157
14.9841	1087.85	60.3645
14.987	1073.681	60.41333
14.9911	1078.54	60.4622
14.9949	1094.84	60.511
15.0001	1096.21	60.5598
15.0034	1081.6	60.6086
15.0073	1078.19	60.6575
15.0118	1090.38	60.7063
15.0154	1098.775	60.7551
15.0196	1089.77	60.804
15.0232	1077.95	60.8528
15.0279	1081.45	60.9016
15.0315	1094.16	60.9504
15.0354	1096.88	60.9993
15.0394	1082.75	61.0481
15.0437	1075.12	61.0969
15.0482	1083.84	61.1458
15.05249	1094.97	61.19458
15.056	1090.78	61.2434
15.0605	1080.838	61.2922
15.0644	1080.11	61.3411
15.0689	1092.79	61.3899
15.0721	1098.21	61.4387
15.07706	1085.24	61.4875
15.0799	1076.24	61.5364
15.0848	1084.09	61.5852
15.0889	1096.26	61.634
15.0934	1092.1	61.6829
15.0969	1079.48	61.7317
15.10132	1076.39	61.7805
15.1056	1088.04	61.8293
15.10843	1094.1	61.8782
15.1132	1085.87	61.927
15.1172	1075.23	61.97583
15.1222	1084.04	62.0247
15.1247	1095.87	62.0735
15.1294	1094.79	62.1223
15.1329	1080.274	62.1711
15.1371	1077.42	62.22
15.1416	1087.76	62.2688
15.1457	1098.05	62.3176
15.14887	1089.09	62.3665
15.1536	1076.65	62.4153
15.15842	1078.77	62.4641
15.1622	1093.14	62.5129
15.16605	1092.91	62.5618
15.1692	1079.428	62.6106
15.1742	1075.76	62.6594
15.178	1089.5	62.7083
15.1822	1098.96	62.75708
15.1868	1090.68	62.8059
15.1905	1076.29	62.8547
15.19437	1078.06	62.9036
15.1998	1093.3	62.9524
15.20266	1094.818	63.0012
15.2065	1082.962	63.05
15.2106	1073.86	63.0989
15.2154	1086.11	63.1477
15.2182	1096.34	63.1965
15.2223	1088.48	63.2454
15.2279	1073.68	63.2942
15.2314	1075.51	63.343
15.2351	1091.09	63.3918
15.2392	1099.24	63.4407
15.2432	1087.33	63.4895
15.2477	1074.7	63.53833
15.2513	1081.22	63.5872
15.2565	1095.15	63.636
15.25987	1094.15	63.6848
15.2645	1076.72	63.7336
15.2679	1073.35	63.7825
15.2719	1088.34	63.8313
15.2769	1097.35	63.8801
15.2813	1083.79	63.929
15.2844	1071.65	63.9778
15.2888	1078.4	64.0266
15.2927	1095.87	64.0754
15.2965	1095.11	64.1243
15.3008	1081.2	64.1731
15.3056	1074.75	64.2219
15.3097	1084.651	64.2708
15.3119	1096.41	64.31958
15.3166	1090.24	64.3684
15.3213	1074.8	64.4172
15.3244	1076.05	64.4661
15.3292	1091.91	64.5149
15.3337	1097.251	64.5637
15.3373	1079.09	64.6125
15.3406	1070.196	64.6614
15.3464	1080.24	64.7102
15.3491	1095.965	64.759
15.3535	1094.064	64.8079
15.3579	1079.9	64.8567
15.362	1075.8	64.9055
15.3658	1089.84	64.9543
15.3697	1097.32	65.0032
15.3732	1084.53	65.052
15.3773	1072.32	65.10083
15.3814	1081.08	65.1497
15.3862	1094.26	65.1985
15.3896	1094.43	65.2473
15.3937	1076.77	65.2961
15.3982	1071.556	65.345
15.403	1084.87	65.3938
15.4063	1095.35	65.4426
15.41094	1086.21	65.4915
15.4144	1076	65.5403
15.4188	1081.33	65.5891
15.4223	1094.76	65.6379
15.42631	1093.7	65.6868
15.4305	1080.65	65.7356
15.4343	1073.69	65.7844
15.4384	1085.79	65.8333
15.4422	1097.23	65.88208
15.4472	1089.308	65.9309
15.4507	1075.81	65.9797
15.4548	1075.6	66.0286
15.4593	1087.53	66.0774
15.463	1093	66.1262
15.46734	1082.46	66.175
15.4727	1072.78	66.2239
15.4749	1082.593	66.2727
15.4796	1094.8	66.3215
15.4831	1089.47	66.3704
15.4887	1077.77	66.4192
15.4919	1073.65	66.468
15.4958	1088.78	66.5168
15.5004	1095.24	66.5657
15.5043	1082.41	66.6145
15.5086	1073.7	66.66333
15.5125	1078.99	66.7122
15.5159	1090.04	66.761
15.5202	1088.906	66.8098
15.5238	1076.48	66.8586
15.52836	1074.267	66.9075
15.5333	1088.06	66.9563
15.5374	1095.67	67.0051
15.5413	1084.29	67.054
15.5442	1073.04	67.1028
15.5483	1078.11	67.1516
15.5529	1093.166	67.2004
15.5561	1090.5	67.2493
15.5601	1079.04	67.2981
15.5661	1073.23	67.3469
15.5692	1085.91	67.3958
15.5734	1091.38	67.44458
15.5777	1084.77	67.4934
15.5813	1071.47	67.5422
15.5857	1077.84	67.5911
15.5899	1092.481	67.6399
15.5933	1095.39	67.6887
15.5972	1080.36	67.7375
15.6022	1071.68	67.7864
15.60603	1081.65	67.8352
15.6099	1096.04	67.884
15.6146	1089.52	67.9329
15.6174	1073.57	67.9817
15.6224	1074.36	68.0305
15.6259	1089.63	68.0793
15.6303	1092.16	68.1282
15.6339	1079.11	68.177
15.6395	1068.51	68.22583
15.6433	1079.486	68.2747
15.64632	1094.45	68.3235
15.65071	1091.54	68.3723
15.6545	1076.58	68.4211
15.6581	1071.93	68.47
15.6621	1086.34	68.5188
15.66751	1095.29	68.5676
15.6703	1085.32	68.6165
15.6746	1071.65	68.6653
15.6789	1078.39	68.7141
15.6834	1093.213	68.7629
15.6876	1091.4	68.8118
15.6903	1073.3	68.8606
15.6962	1068.44	68.9094
15.6998	1081.48	68.9583
15.7034	1095.55	69.00708
15.7071	1087.45	69.0559
15.7114	1072.68	69.1047
15.71586	1074.87	69.1536
15.7198	1090.63	69.2024
15.7246	1092.96	69.2512
15.7281	1080.46	69.3
15.7327	1069.51	69.3489
15.7354	1079.64	69.3977
15.74	1094.36	69.4465
15.7443	1089.65	69.4954
15.7476	1070.48	69.5442
15.7534	1069.06	69.593
15.7559	1086.93	69.6418
15.76027	1093.89	69.6907
15.7639	1082.43	69.7395
15.7685	1070.57	69.78833
15.7726	1077.62	69.8372
15.7773	1092.01	69.886
15.7802	1091.01	69.9348
15.7847	1074.99	69.9836
15.789	1070.7	70.0325
15.7926	1081.9	70.0813
15.797	1093.37	70.1301
15.8006	1084.54	70.179
15.8044	1067.14	70.2278
15.8096	1071.46	70.2766
15.8131	1086.86	70.3254
15.81684	1089.86	70.3743
15.8214	1076.79	70.4231
15.8257	1070.21	70.4719
15.8302	1082.78	70.5208
15.8337	1091.34	70.56958
15.8382	1085.037	70.6184
15.8423	1071.41	70.6672
15.8458	1071.82	70.7161
15.8495	1087.02	70.7649
15.8549	1091.3	70.8137
15.8591	1078.17	70.8625
15.8626	1067.73	70.9114
15.8663	1075.44	70.9602
15.8711	1088.06	71.009
15.8741	1082.479	71.0579
15.8784	1070.901	71.1067
15.8828	1071.94	71.1555
15.8864	1085.74	71.2043
15.891	1088.64	71.2532
15.8943	1077	71.302
15.89748	1065.92	71.35083
15.9035	1072.744	71.3997
15.9067	1088.07	71.4485
15.9116	1083.77	71.4973
15.9151	1068.32	71.5461
15.9198	1062.84	71.595
15.9231	1072.16	71.6438
15.9278	1073.72	71.6926
15.9358	-39.3096	71.7415
15.93797	-50.9544	71.7903
15.9411	-40.5915	71.8391
15.94524	-23.7345	71.8879
15.9485	-32.2736	71.9368
15.9524	-50.4899	71.9856
15.957	-49.986	72.0344
15.96047	-31.9524	72.0833
15.9637	-25.4391	72.13208
15.9684	-41.0515	72.1809
15.973	-51.1981	72.2297
15.977	-42.3722	72.2786
15.98095	-31.2415	72.3274
15.9841	-34.0942	72.3762
15.988	-47.6375	72.425
15.9926	-51.088	72.4739
15.9966	-36.6091	72.5227
16.0003	-31.1148	72.5618