File: data/processed_data_files/tensile/0.254_solid_dimension_typei_4545_r(2).dat
MTS793|BTW|ENU|1|2|.|/|:|1|0|0|A

Data Header:			0.254_solid_dimension_typei_4545_r0			Time:	20.0181	s	4/14/2019 4:45:08 AM
Data Acquisition:	Timed
Station Name:	ft40.cfg
Test File Name:	monotonic_0.2540_typei_solid_4545_dimension.tst
Displacement	Force	Running Time
mm	N	s
9.95782	-134.678	0.0234375
9.96052	-136.821	0.0917969
9.96642	-135.191	0.160156
9.97145	-133.004	0.228516
9.977129	-131.999	0.296875
9.98314	-125.682	0.365234
9.98931	-117.648	0.433594
9.995019	-110.837	0.501953
9.99948	-106.2	0.5703125
10.0056	-100.471	0.638672
10.0114	-96.7421	0.707031
10.0169	-98.0153	0.775391
10.0233	-98.4818	0.84375
10.0297	-98.1927	0.912109
10.034	-99.3119	0.980469
10.0397	-92.9042	1.04883
10.0454	-86.8136	1.11719
10.0514	-79.8721	1.18555
10.0572	-74.4806	1.25391
10.0641	-64.3904	1.32227
10.0687	-60.5066	1.390625
10.0745	-61.0913	1.45898
10.0799	-61.5558	1.52734
10.0875	-62.1902	1.5957
10.092	-62.6135	1.66406
10.0979	-57.7102	1.73242
10.1031	-52.1991	1.80078
10.1082	-47.69978	1.86914
10.1133	-41.6564	1.9375
10.1198	-31.0407	2.00586
10.1255	-25.6838	2.07422
10.1314	-23.4337	2.14258
10.1371	-20.6842	2.21094
10.142	-22.3133	2.2793
10.1476	-24.2397	2.34766
10.1537	-21.1366	2.41602
10.1601	-16.2655	2.484375
10.1659	-13.5298	2.55273
10.1703	-6.56225	2.62109
10.176	5.33525	2.68945
10.1827	10.9142	2.75781
10.1875	14.0883	2.82617
10.1935	18.86232	2.89453
10.1991	19.2948	2.96289
10.2055	15.8084	3.03125
10.2107	17.3511	3.09961
10.2169	23.1422	3.16797
10.22254	21.4137	3.23633
10.2277	26.14282	3.30469
10.2335	39.3337	3.37305
10.2401	49.5242	3.44141
10.2457	51.1861	3.50977
10.2509	56.7235	3.578125
10.2557	62.3234	3.64648
10.2608	58.1819	3.71484
10.26722	58.026	3.7832
10.2732	62.3335	3.85156
10.27874	61.7715	3.91992
10.2842	62.5397	3.98828
10.292	74.7508	4.05664
10.2959	85.1054	4.125
10.302	91.0455	4.19336
10.308	95.976	4.26172
10.3135	102.0657	4.33008
10.3195	101.694	4.39844
10.3253	101.3092	4.4668
10.3301	101.745	4.53516
10.3365	100.744	4.60352
10.3416	100.783	4.671875
10.3473	109.5531	4.74023
10.3539	119.751	4.80859
10.3594	124.045	4.87695
10.3647	133.56	4.94531
10.3716	140.81	5.01367
10.3761	143.176	5.08203
10.3814	143.7133	5.15039
10.3882	142.785	5.21875
10.3941	141.728	5.28711
10.3996	141.276	5.35547
10.4045	146.41	5.42383
10.4108	154.187	5.49219
10.4159	162.548	5.56055
10.4221	172.2886	5.62891
10.4282	178.196	5.69727
10.4328	181.3007	5.765625
10.4391	184.803	5.83398
10.4446	186.173	5.90234
10.4502	182.566	5.9707
10.4554	181.329	6.03906
10.4618	184.07	6.10742
10.4668	190.842	6.17578
10.47257	197.706	6.24414
10.47776	205.8	6.3125
10.4852	213.388	6.38086
10.4904	220.348	6.44922
10.496	226.373	6.51758
10.5018	227.195	6.58594
10.5071	223.534	6.6543
10.5116	223.2	6.72266
10.5187	225.278	6.79102
10.5242	226.552	6.859375
10.5297	232.3333	6.92773
10.535	240.429	6.99609
10.5412	249.592	7.06445
10.5462	257.774	7.13281
10.5524	265.231	7.20117
10.5578	269.493	7.26953
10.5644	266.577	7.33789
10.5689	264.1077	7.40625
10.5747	264.944	7.47461
10.5812	267.624	7.54297
10.5867	267.457	7.61133
10.5924	276.102	7.67969
10.597	285.971	7.74805
10.6045	293.061	7.81641
10.6105	301.26	7.88477
10.6153	308.363	7.953125
10.6205	307.34	8.02148
10.6267	303.8761	8.08984
10.6325	307.175	8.1582
10.6371	307.962	8.22656
10.6441	305.432	8.29492
10.6495	311.116	8.36328
10.6549	321.887	8.43164
10.66021	326.54	8.5
10.6668	336.962	8.56836
10.6716	346.135	8.63672
10.6772	349.632	8.70508
10.6836	347.098	8.77344
10.6887	349.698	8.8418
10.6941	348.5921	8.91016
10.7012	344.847	8.97852
10.7057	347.0029	9.046875
10.7131	353.917	9.11523
10.7175	359.63	9.18359
10.72239	368.537	9.25195
10.7288	380.609	9.32031
10.7351	386.353	9.38867
10.7402	388.113	9.45703
10.7459	391.739	9.52539
10.7519	391.952	9.59375
10.7576	386.68	9.66211
10.7629	386.722	9.73047
10.7695	387.738	9.79883
10.7739	393.374	9.86719
10.7806	403.733	9.93555
10.786	413.006	10.0039
10.7922	421.037	10.0723
10.79727	427.767	10.1406
10.8029	430.959	10.209
10.8097	433.49	10.2773
10.8151	428.214	10.3457
10.8212	424.784	10.4141
10.8263	427.493	10.4824
10.8322	428.168	10.5508
10.8374	437.81	10.6191
10.84267	445.301	10.6875
10.8481	453.648	10.7559
10.8539	461.832	10.8242
10.8605	468.919	10.8926
10.8658	472.38	10.9609
10.8714	470.408	11.0293
10.8771	466.014	11.0977
10.8823	465.281	11.166
10.8889	463.564	11.2344
10.894	469.802	11.3027
10.9001	477.123	11.3711
10.9056	484.002	11.4395
10.91127	492.262	11.5078
10.91607	502.577	11.5762
10.9228	509.175	11.6445
10.9288	509.743	11.7129
10.9342	508.425	11.78125
10.9389	505.565	11.8496
10.9445	500.076	11.918
10.9501	504.942	11.9863
10.9571	509.656	12.0547
10.9615	515.549	12.123
10.96916	523.492	12.1914
10.9731	537.182	12.2598
10.9798	543.304	12.3281
10.9847	545.596	12.3965
10.991	547.585	12.4648
10.9958	545.071	12.5332
11.0022	540.061	12.6016
11.008	541.041	12.6699
11.0129	545.381	12.7383
11.02	546.283	12.8066
11.0254	554.909	12.875
11.0304	568.422	12.9434
11.0364	578.885	13.0117
11.0421	580.775	13.0801
11.0482	584.3324	13.1484
11.052	583.98	13.2168
11.0596	579.179	13.2852
11.0646	577.128	13.3535
11.0712	578.967	13.4219
11.0769	580.9458	13.4902
11.0831	586.333	13.5586
11.0882	596.989	13.627
11.0939	609.286	13.6953
11.0991	615.3252	13.7637
11.1048	620.742	13.832
11.1111	621.597	13.9004
11.1156	618.409	13.96875
11.1215	615.827	14.0371
11.12761	615.356	14.1055
11.1336	612.776	14.1738
11.1378	614.834	14.2422
11.1447	624.925	14.3105
11.1501	636.926	14.3789
11.1556	644.427	14.4473
11.1619	651.9325	14.5156
11.168	657.498	14.584
11.1729	655.572	14.6523
11.1797	653.602	14.7207
11.184	650.271	14.7891
11.1904	648.607	14.8574
11.1954	647.7428	14.9258
11.2012	654.975	14.9941
11.2077	667.299	15.0625
11.21184	674.474	15.1309
11.219	684.082	15.1992
11.225	689.939	15.2676
11.2302	690.939	15.3359
11.2364	691.508	15.4043
11.2414	687.8736	15.4727
11.2466	682.451	15.541
11.253	679.719	15.6094
11.2587	685.064	15.6777
11.26438	694.778	15.7461
11.2693	702.458	15.8145
11.27552	712.899	15.8828
11.2806	721.935	15.9512
11.2871	723.73	16.0195
11.2925	728.348	16.0879
11.2989	724.7771	16.15625
11.3049	718.451	16.2246
11.3096	714.298	16.293
11.3155	717.14	16.3613
11.3216	722.193	16.4297
11.3272	727.9809	16.498
11.3328	739.231	16.5664
11.33794	749.198	16.6348
11.3434	754.32	16.7031
11.3493	760.344	16.7715
11.3558	760.0014	16.8398
11.3612	754.622	16.9082
11.3673	748.442	16.9766
11.3725	751.314	17.0449
11.3787	754.152	17.1133
11.3833	755.885	17.1816
11.38994	766.079	17.25
11.3949	775.746	17.3184
11.4012	782.003	17.3867
11.4056	788.969	17.4551
11.4123	792.825	17.5234
11.418	788.526	17.5918
11.4234	782.383	17.6602
11.4294	782.457	17.7285
11.4353	782.512	17.7969
11.4406	784.424	17.8652
11.4458	791.464	17.9336
11.452	801.486	18.002
11.4575	808.929	18.0703
11.4643	818.8	18.1387
11.4689	822.833	18.207
11.4752	821.177	18.2754
11.4808	814.956	18.34375
11.4862	812.59	18.4121
11.4912	814.049	18.4805
11.49712	811.799	18.5488
11.5033	817.299	18.6172
11.5093	825.019	18.6855
11.5145	833.663	18.7539
11.5207	843.19	18.8223
11.5271	849.456	18.8906
11.5318	850.704	18.959
11.5372	846.977	19.0273
11.5426	845.643	19.0957
11.5489	844.254	19.1641
11.5552	840.224	19.2324
11.5606	842.54	19.3008
11.5651	850.045	19.3691
11.5718	857.337	19.4375
11.5773	868.013	19.5059
11.5826	875.424	19.5742
11.5889	878.288	19.6426
11.5958	877.423	19.7109
11.6	875.868	19.7793
11.6059	874.8	19.8477
11.6105	870.595	19.916
11.6181	869.63	19.9844
11.6196	894.132	20.0137

Data Header:			0.254_solid_dimension_typei_4545_r0			Time:	40.0181	s	4/14/2019 4:45:28 AM
Data Acquisition:	Timed
Station Name:	ft40.cfg
Test File Name:	monotonic_0.2540_typei_solid_4545_dimension.tst
Displacement	Force	Running Time
mm	N	s
11.6211	891.007	20.0234
11.6263	890.383	20.0918
11.6321	881.544	20.1602
11.6371	878.905	20.2285
11.6432	883.666	20.2969
11.6487	884.954	20.3652
11.655	888.445	20.4336
11.6604	899.564	20.502
11.666	907.532	20.5703
11.6708	913.484	20.6387
11.6773	917.116	20.707
11.6832	917.126	20.7754
11.688	911.77	20.84375
11.6947	905.479	20.9121
11.70026	908.68	20.9805
11.707	909.1615	21.0488
11.7124	911.473	21.1172
11.7172	919.328	21.1855
11.7221	927.264	21.2539
11.72889	935.231	21.3223
11.7354	940.4585	21.3906
11.7394	942.6665	21.459
11.7448	938.026	21.5273
11.7509	933.278	21.5957
11.7569	933.815	21.6641
11.7628	931.352	21.7324
11.7686	932.79	21.8008
11.7745	939.453	21.8691
11.78043	946.878	21.9375
11.7851	956.234	22.0059
11.7914	961.788	22.0742
11.7968	963.404	22.1426
11.8033	961.388	22.2109
11.8073	959.699	22.2793
11.813	957.377	22.3477
11.8196	954.177	22.416
11.8266	954.187	22.4844
11.8311	958.41	22.5527
11.8366	963.276	22.6211
11.8426	971.874	22.6895
11.8477	979.657	22.7578
11.8534	984.177	22.8262
11.85908	984.206	22.8945
11.8655	982.9328	22.9629
11.8707	981.742	23.03125
11.877	977.335	23.0996
11.8821	973.765	23.168
11.8883	976.1557	23.2363
11.894	978.765	23.3047
11.8986	987.802	23.373
11.9043	996.901	23.4414
11.9101	1001.794	23.5098
11.9165	1003.42	23.5781
11.9217	1003.29	23.6465
11.9273	1005.71	23.7148
11.9338	997.942	23.7832
11.9395	995.066	23.8516
11.946	995.123	23.9199
11.9504	996.3	23.9883
11.9561	1001.57	24.0566
11.9619	1010.45	24.125
11.9681	1017.88	24.1934
11.9727	1018.8	24.2617
11.9795	1022.17	24.3301
11.985	1024.58	24.3984
11.9901	1018.39	24.4668
11.9951	1012.35	24.5352
12.0013	1013.256	24.6035
12.007	1011.07	24.6719
12.0126	1013.06	24.7402
12.0191	1021.49	24.8086
12.0247	1027.74	24.877
12.0293	1030.15	24.9453
12.036	1035.6	25.0137
12.042	1040.577	25.082
12.0475	1035.28	25.1504
12.05291	1030.51	25.21875
12.0593	1028.799	25.2871
12.0651	1024.69	25.3555
12.07	1025.95	25.4238
12.0759	1030.63	25.4922
12.0821	1035.09	25.5605
12.087	1039.78	25.6289
12.09299	1046.09	25.6973
12.09903	1053.481	25.7656
12.1042	1051.05	25.834
12.1102	1047.04	25.9023
12.1149	1044.91	25.9707
12.1206	1039.13	26.0391
12.1274	1037.87	26.1074
12.1325	1039.2	26.1758
12.1388	1046	26.2441
12.1432	1047.32	26.3125
12.1494	1053.8	26.3809
12.1556	1063.61	26.4492
12.1611	1064.29	26.5176
12.1665	1059.74	26.5859
12.1733	1056.16	26.6543
12.1781	1050.86	26.7227
12.1848	1049.55	26.791
12.1889	1048.06	26.8594
12.19475	1050.74	26.9277
12.201	1053.62	26.9961
12.20588	1057.81	27.0645
12.2116	1069.08	27.1328
12.2185	1072.28	27.2012
12.2235	1069.89	27.2695
12.2294	1067.91	27.3379
12.2345	1064.137	27.40625
12.2406	1058.62	27.4746
12.2471	1057.42	27.543
12.2529	1055.82	27.6113
12.2582	1056.4	27.6797
12.2637	1063.58	27.748
12.2692	1071.63	27.8164
12.2755	1074.96	27.8848
12.28067	1078.58	27.9531
12.2871	1076.69	28.0215
12.29281	1071.92	28.0898
12.2984	1068.29	28.1582
12.3033	1066.03	28.2266
12.30869	1060.99	28.2949
12.3142	1059.99	28.3633
12.3208	1065.68	28.4316
12.3262	1075.02	28.5
12.332	1079.2	28.5684
12.3377	1082.87	28.6367
12.3437	1085.22	28.7051
12.3497	1079.58	28.7734
12.3557	1078.44	28.8418
12.3608	1073.451	28.9102
12.3671	1066.377	28.9785
12.3722	1063.037	29.0469
12.3776	1067.93	29.1152
12.3829	1076.79	29.1836
12.3893	1077.413	29.252
12.3944	1083.15	29.3203
12.4018	1088.948	29.3887
12.406	1085.09	29.457
12.4125	1083.137	29.5254
12.4181	1081.24	29.59375
12.4232	1073.92	29.6621
12.4302	1066.34	29.7305
12.4346	1069.332	29.7988
12.43971	1074.5	29.8672
12.4457	1077.86	29.9355
12.4518	1082.44	30.0039
12.4572	1090.48	30.0723
12.4628	1089.9	30.1406
12.4695	1089.78	30.209
12.4751	1085.73	30.2773
12.48	1079.57	30.3457
12.4845	1071.23	30.4141
12.4918	1069.83	30.4824
12.4967	1075.37	30.5508
12.50358	1077.44	30.6191
12.5088	1082.61	30.6875
12.5143	1090.366	30.7559
12.5199	1092.739	30.8242
12.5266	1093.97	30.8926
12.5316	1091.52	30.9609
12.5375	1085.62	31.0293
12.5431	1078.11	31.0977
12.5485	1073.89	31.166
12.5535	1076.49	31.2344
12.56	1076.12	31.3027
12.5648	1079.58	31.3711
12.5716	1086.91	31.4395
12.5766	1092.39	31.5078
12.5826	1094.12	31.5762
12.5878	1095.1	31.6445
12.5946	1090.233	31.7129
12.6011	1082.17	31.78125
12.6059	1078.13	31.8496
12.6114	1078.17	31.918
12.6164	1076.23	31.9863
12.6219	1078.08	32.0547
12.6278	1084.371	32.123
12.634	1088.71	32.1914
12.6406	1094.2	32.2598
12.646	1095.166	32.3281
12.6517	1092.24	32.3965
12.6572	1087.48	32.4648
12.6628	1083.47	32.5332
12.6675	1078.66	32.6016
12.6736	1077.04	32.6699
12.6799	1076.98	32.7383
12.6853	1081.38	32.8066
12.691	1087.34	32.875
12.6973	1092.3	32.9434
12.7031	1095.99	33.0117
12.7085	1094.43	33.0801
12.7149	1090.108	33.1484
12.7196	1086.73	33.2168
12.726	1081.25	33.2852
12.7312	1077.56	33.3535
12.7359	1076.92	33.4219
12.7415	1076.61	33.4902
12.7482	1080.97	33.5586
12.7535	1089.55	33.627
12.7594	1093.29	33.6953
12.765	1094.04	33.7637
12.7701	1091.04	33.832
12.7763	1091.413	33.9004
12.7819	1086.69	33.96875
12.788	1079.56	34.0371
12.7936	1077.677	34.1055
12.7974	1077.67	34.1738
12.8056	1077.55	34.2422
12.8099	1084.48	34.3105
12.8158	1092.53	34.3789
12.8226	1092.29	34.4473
12.82783	1092.32	34.5156
12.833	1094.15	34.584
12.8388	1090.85	34.6523
12.84503	1083.59	34.7207
12.8505	1078.67	34.7891
12.8548	1078.66	34.8574
12.8622	1076.6	34.9258
12.8677	1080.19	34.9941
12.8724	1087.4	35.0625
12.8799	1091.69	35.1309
12.88512	1090.75	35.1992
12.8909	1094.058	35.2676
12.896	1094.1	35.3359
12.9013	1085.11	35.4043
12.9073	1081.769	35.4727
12.9133	1080.48	35.541
12.9183	1076.77	35.6094
12.9247	1078.5	35.6777
12.9297	1083.61	35.7461
12.9358	1086.42	35.8145
12.94131	1088.71	35.8828
12.9469	1094.21	35.9512
12.9528	1096.48	36.0195
12.9583	1090.141	36.0879
12.9641	1083.86	36.15625
12.9693	1081.01	36.2246
12.9755	1076.83	36.293
12.9818	1076.49	36.3613
12.9863	1080.84	36.4297
12.9928	1082.57	36.498
12.999	1085.87	36.5664
13.0048	1092.2	36.6348
13.0098	1096.52	36.7031
13.016	1093.62	36.7715
13.0219	1088.65	36.8398
13.027	1083.11	36.9082
13.0335	1076.75	36.9766
13.0394	1076.12	37.0449
13.0439	1075.66	37.1133
13.0501	1078.02	37.1816
13.0554	1082.69	37.25
13.0623	1090.7	37.3184
13.0663	1094.422	37.3867
13.0718	1093.08	37.4551
13.07799	1093.03	37.5234
13.0849	1085.28	37.5918
13.0901	1080.75	37.6602
13.09615	1077.871	37.7285
13.1014	1074.74	37.7969
13.1064	1074.87	37.8652
13.1111	1078.25	37.9336
13.1183	1085.256	38.002
13.1241	1090.95	38.0703
13.1293	1092.92	38.1387
13.1355	1093.72	38.207
13.1401	1088.88	38.2754
13.1475	1083.19	38.34375
13.1521	1079.79	38.4121
13.1581	1076.62	38.4805
13.1643	1073.14	38.5488
13.1702	1075.82	38.6172
13.1745	1083.95	38.6855
13.1805	1089.09	38.7539
13.1869	1089.54	38.8223
13.1925	1095.79	38.8906
13.1993	1091.92	38.959
13.2042	1084.744	39.0273
13.2091	1083.3	39.0957
13.2146	1078.32	39.1641
13.2209	1071.938	39.2324
13.2265	1072.19	39.3008
13.2324	1079.31	39.3691
13.2368	1084.98	39.4375
13.2437	1087.58	39.5059
13.24963	1091.23	39.5742
13.255	1094.74	39.6426
13.26	1089.84	39.7109
13.2657	1085.45	39.7793
13.2715	1082.28	39.8477
13.2773	1073.31	39.916
13.2833	1070.27	39.9844
13.2864	1093.29	40.0137

Data Header:			0.254_solid_dimension_typei_4545_r0			Time:	54.6428	s	4/14/2019 4:45:42 AM
Data Acquisition:	Timed
Station Name:	ft40.cfg
Test File Name:	monotonic_0.2540_typei_solid_4545_dimension.tst
Displacement	Force	Running Time
mm	N	s
13.2864	1089.61	40.0234
13.29119	1091.07	40.0723
13.294	1081.47	40.1211
13.2987	1076.31	40.1699
13.303	1081.58	40.21875
13.3078	1089.58	40.2676
13.3102	1084.45	40.3164
13.314	1075.27	40.3652
13.3188	1078.14	40.4141
13.323	1088.16	40.4629
13.3273	1090.71	40.5117
13.3311	1080.6	40.5605
13.33557	1075.07	40.6094
13.3388	1081.16	40.6582
13.343	1092.1	40.707
13.3483	1088.56	40.7559
13.3521	1078.73	40.8047
13.3558	1078.18	40.8535
13.3593	1086.14	40.9023
13.3636	1089.12	40.9512
13.3683	1081.58	41
13.372	1073.11	41.0488
13.3762	1080.27	41.0977
13.3795	1090.74	41.1465
13.3837	1089.13	41.1953
13.3885	1075.87	41.2441
13.3926	1074.03	41.293
13.396	1084.19	41.3418
13.4002	1090.93	41.3906
13.4043	1085.16	41.4395
13.40871	1074.92	41.4883
13.4132	1079.83	41.5371
13.4173	1088.09	41.5859
13.421	1087.25	41.6348
13.4244	1076.99	41.6836
13.429	1074.71	41.7324
13.4331	1083.98	41.78125
13.4372	1092.49	41.8301
13.4417	1086.49	41.8789
13.4459	1073.5	41.9277
13.4496	1076.09	41.9766
13.4527	1086.66	42.0254
13.4578	1089.69	42.0742
13.4615	1080.84	42.123
13.4649	1072.82	42.1719
13.471	1080.66	42.2207
13.4731	1089.79	42.2695
13.4775	1084.07	42.3184
13.48149	1073.25	42.3672
13.4857	1074.83	42.416
13.4899	1086.6	42.4648
13.494	1093.851	42.5137
13.498	1081.41	42.5625
13.5028	1073.6	42.6113
13.5068	1078.03	42.6602
13.51	1089	42.709
13.5138	1087.788	42.7578
13.5168	1075.28	42.8066
13.5222	1074	42.8555
13.5259	1084.651	42.9043
13.5304	1089.85	42.9531
13.5347	1081.4	43.002
13.5384	1070.51	43.0508
13.5432	1075.98	43.0996
13.5468	1090.07	43.1484
13.5508	1092.756	43.1973
13.5553	1080.24	43.2461
13.5594	1072.96	43.2949
13.563	1082.1	43.34375
13.5682	1089.69	43.3926
13.5709	1084.6	43.4414
13.5754	1072.42	43.4902
13.5789	1074	43.5391
13.58373	1088.13	43.5879
13.5871	1088.78	43.6367
13.5905	1077.136	43.6855
13.5961	1070.51	43.7344
13.5996	1078.8	43.7832
13.6039	1091.203	43.832
13.6076	1086.94	43.8809
13.6111	1076.43	43.9297
13.61636	1072.69	43.9785
13.6202	1086.04	44.0273
13.6238	1090.46	44.0762
13.6287	1079.47	44.125
13.6324	1070.2	44.1738
13.6353	1076.3	44.2227
13.6399	1088.84	44.2715
13.6441	1085.49	44.3203
13.648	1073.09	44.3691
13.6519	1067.87	44.418
13.6569	1080.08	44.4668
13.6615	1090.44	44.5156
13.6656	1083.35	44.5645
13.6688	1072.6	44.6133
13.67288	1075.56	44.6621
13.6764	1087.31	44.7109
13.6816	1090.47	44.7598
13.6855	1077.41	44.8086
13.6897	1072	44.8574
13.69323	1080.83	44.90625
13.6969	1090.64	44.9551
13.7007	1084.71	45.0039
13.7055	1069.18	45.0527
13.70906	1069.66	45.1016
13.714	1083.75	45.1504
13.7172	1090.24	45.1992
13.72073	1080.06	45.248
13.7251	1072.29	45.2969
13.7298	1076.92	45.3457
13.733	1088.59	45.3945
13.7383	1086.49	45.4434
13.7421	1073.51	45.4922
13.7462	1073.1	45.541
13.7502	1083.03	45.5898
13.754	1089.84	45.6387
13.7587	1079.41	45.6875
13.7617	1067.75	45.7363
13.7668	1073.5	45.7852
13.7711	1086.07	45.834
13.7753	1087.14	45.8828
13.7786	1076	45.9316
13.78124	1072.05	45.9805
13.7864	1080.01	46.0293
13.7915	1090.13	46.0781
13.7943	1083.9	46.127
13.7994	1070.92	46.1758
13.8028	1074.78	46.2246
13.8075	1087.08	46.2734
13.81082	1090.32	46.3223
13.815	1077.27	46.3711
13.8191	1068.12	46.4199
13.8242	1075.57	46.46875
13.82752	1087.41	46.5176
13.8316	1083.42	46.5664
13.835	1072.04	46.6152
13.8398	1071.23	46.6641
13.8446	1082.81	46.7129
13.8473	1088.19	46.7617
13.8517	1079.01	46.8105
13.8554	1071.22	46.8594
13.8596	1077.43	46.9082
13.8648	1086.95	46.957
13.8699	1086.99	47.0059
13.8719	1073.64	47.0547
13.877	1068.91	47.1035
13.8801	1079.92	47.1523
13.8852	1085.81	47.2012
13.8882	1079.09	47.25
13.8923	1069.9	47.2988
13.897	1073.69	47.3477
13.9007	1084.67	47.3965
13.9045	1084.31	47.4453
13.90933	1076.16	47.4941
13.912	1069.22	47.543
13.9177	1079.21	47.5918
13.9214	1087.54	47.6406
13.92522	1082.02	47.6895
13.9286	1071.05	47.7383
13.9331	1071.31	47.7871
13.9371	1082.2	47.8359
13.9412	1085.03	47.8848
13.9456	1076	47.9336
13.949	1070.62	47.9824
13.9541	1078.26	48.03125
13.9572	1085.61	48.0801
13.961	1082.52	48.1289
13.9654	1072.61	48.1777
13.9697	1072.04	48.2266
13.9744	1082.61	48.2754
13.978	1087.54	48.3242
13.9827	1077.8	48.373
13.9869	1070.06	48.4219
13.991	1073.22	48.4707
13.99394	1084.15	48.5195
13.9992	1083.96	48.5684
14.0025	1075.03	48.6172
14.0058	1073.047	48.666
14.0102	1080.89	48.7148
14.0151	1087.506	48.7637
14.0182	1079.45	48.8125
14.0223	1069.21	48.8613
14.0258	1072.8	48.9102
14.0308	1083.66	48.959
14.0349	1082.92	49.0078
14.0399	1073.29	49.0566
14.0422	1068.71	49.1055
14.0474	1076.8	49.1543
14.0517	1084.85	49.2031
14.0554	1078.72	49.252
14.0594	1070.45	49.3008
14.0626	1073.7	49.3496
14.0674	1085.14	49.3984
14.0715	1085.53	49.4473
14.0754	1072.97	49.4961
14.08	1069.28	49.5449
14.0841	1076.58	49.59375
14.0875	1083.68	49.6426
14.0922	1080.26	49.6914
14.0961	1070.49	49.7402
14.0995	1069.39	49.7891
14.10467	1080.07	49.8379
14.1086	1082.68	49.8867
14.1127	1074.48	49.9355
14.1159	1069.89	49.9844
14.1205	1076.23	50.0332
14.12429	1086.06	50.082
14.1285	1082.87	50.1309
14.1315	1069.96	50.1797
14.1375	1069.58	50.2285
14.1398	1078.72	50.2773
14.145	1083.32	50.3262
14.148	1075.14	50.375
14.1525	1067.46	50.4238
14.157	1073.33	50.4727
14.1609	1079.9	50.5215
14.1646	1079.72	50.5703
14.1687	1068.04	50.6191
14.1724	1066.71	50.668
14.1773	1078.45	50.7168
14.1816	1085.43	50.7656
14.1858	1079.097	50.8145
14.1885	1067.47	50.8633
14.1925	1072.1	50.9121
14.1979	1081.87	50.9609
14.2016	1081.59	51.0098
14.2056	1070.416	51.0586
14.2096	1066.39	51.1074
14.2141	1073.813	51.15625
14.2173	1080.98	51.2051
14.221	1075.67	51.2539
14.2254	1066.44	51.3027
14.2305	1069.15	51.3516
14.2342	1080.83	51.4004
14.2391	1083.6	51.4492
14.24184	1077.19	51.498
14.2465	1065.66	51.5469
14.2516	1073.24	51.5957
14.2547	1084.299	51.6445
14.25928	1079.48	51.6934
14.2633	1067.67	51.7422
14.2668	1068.48	51.791
14.2706	1078.66	51.8398
14.2744	1081.43	51.8887
14.2784	1072.76	51.9375
14.2822	1061.29	51.9863
14.288	1068.73	52.0352
14.2909	1079.75	52.084
14.296	1080.3	52.1328
14.29956	1069.32	52.1816
14.3037	1063.29	52.2305
14.308	1073.9	52.2793
14.3124	1082.6	52.3281
14.3163	1075.86	52.377
14.3198	1063.85	52.4258
14.32384	1067.61	52.4746
14.328	1078.38	52.5234
14.3318	1078.06	52.5723
14.3357	1065.06	52.6211
14.3379	1058.34	52.6699
14.3437	1066.18	52.71875
14.34922	897.646	52.7676
14.3562	-37.2606	52.8164
14.3589	-48.7463	52.8652
14.3621	-47.8122	52.9141
14.365	-32.2268	52.9629
14.3702	-29.52165	53.0117
14.3736	-43.19569	53.0605
14.3779	-51.7026	53.1094
14.38209	-38.5114	53.1582
14.3861	-27.9995	53.207
14.3889	-34.8349	53.2559
14.3939	-48.5358	53.3047
14.3976	-48.4877	53.3535
14.402	-35.2166	53.4023
14.4054	-29.9962	53.4512
14.4099	-39.3261	53.5
14.4145	-49.37199	53.5488
14.4189	-44.4567	53.5977
14.4233	-33.7105	53.6465
14.42598	-32.2513	53.6953
14.4304	-43.84285	53.7441
14.4342	-48.8732	53.793
14.4372	-37.6663	53.8418
14.442	-29.9574	53.8906
14.44554	-36.7422	53.9395
14.45063	-49.72805	53.9883
14.4537	-47.0575	54.0371
14.4585	-33.9531	54.0859
14.4626	-32.7965	54.1348
14.4666	-42.4088	54.1836
14.4711	-48.7681	54.2324
14.4752	-43.0389	54.28125
14.479	-32.1583	54.3301
14.4831	-36.59127	54.3789
14.4873	-48.8519	54.4277
14.4911	-48.3191	54.4766
14.4948	-35.3942	54.5254
14.4991	-30.6446	54.5742
14.5028	-41.9417	54.623
14.5038	-35.22477	54.6328