File: data/processed_data_files/tensile/0.254_hd_dimension_typeiv_4545_r(3).dat
MTS793|BTW|ENU|1|2|.|/|:|1|0|0|A

Data Header:			0.254_hd_dimension_typeiv_4545_r0			Time:	20.0217	s	4/13/2019 8:16:34 PM
Data Acquisition:	Timed
Station Name:	ft40.cfg
Test File Name:	monotonic_0.2540_typeiv_hd_4545_dimension.tst
Displacement	Force	Running Time
mm	N	s
-40.0348	-211.74	0.0258789
-40.0333	-216.938	0.0942383
-40.0252	-211.934	0.162598
-40.021	-206.097	0.230957
-40.0151	-198.4866	0.299316
-40.0097	-198.892	0.367676
-40.0033	-196.181	0.436035
-39.9982	-193.152	0.504395
-39.9928	-192.45	0.572754
-39.9868	-191.494	0.641113
-39.9812	-185.67	0.709473
-39.975	-183.699	0.777832
-39.9702	-182.346	0.846191
-39.9644	-174.655	0.914551
-39.9568	-168.945	0.98291
-39.953	-164.716	1.05127
-39.9467	-164.72	1.11963
-39.9403	-162.341	1.18799
-39.9345	-160.526	1.25635
-39.9301	-159.173	1.324707
-39.924	-155.891	1.39307
-39.918	-154.688	1.46143
-39.9133	-152.476	1.52979
-39.9083	-146.638	1.59814
-39.901	-139.158	1.6665
-39.8969	-135.453	1.73486
-39.8902	-132.0591	1.80322
-39.8835	-127.12	1.871582
-39.8786	-126.746	1.93994
-39.8724	-127.062	2.0083
-39.8661	-124.107	2.07666
-39.861	-124.458	2.14502
-39.8548	-119.022	2.21338
-39.8493	-114.709	2.28174
-39.8446	-109.873	2.3501
-39.8384	-104.205	2.418457
-39.8322	-98.3926	2.48682
-39.8261	-96.0839	2.55518
-39.8217	-95.5164	2.62354
-39.8168	-93.6606	2.69189
-39.8104	-92.2889	2.76025
-39.8053	-92.4905	2.82861
-39.7986	-90.06205	2.89697
-39.7924	-82.1018	2.965332
-39.7876	-78.3528	3.03369
-39.7823	-72.5271	3.10205
-39.7755	-67.3269	3.17041
-39.7705	-65.9375	3.23877
-39.766	-62.7459	3.30713
-39.7581	-60.1011	3.37549
-39.752	-58.5975	3.44385
-39.7482	-62.16647	3.512207
-39.7427	-59.44136	3.58057
-39.7363	-51.1077	3.64893
-39.7303	-46.7854	3.71729
-39.7245	-45.85294	3.78564
-39.7193	-37.972	3.854
-39.71357	-33.4819	3.92236
-39.7071	-31.79	3.99072
-39.7014	-28.1078	4.059082
-39.6964	-26.7385	4.12744
-39.6911	-29.3222	4.1958
-39.6848	-28.5245	4.26416
-39.6798	-20.6971	4.33252
-39.67416	-16.6761	4.40088
-39.6665	-15.7222	4.46924
-39.66256	-9.26563	4.5376
-39.656	-3.441	4.605957
-39.6508	0.630915	4.67432
-39.6445	2.84446	4.74268
-39.6396	5.69168	4.81104
-39.6352	4.383368	4.87939
-39.6284	5.38936	4.94775
-39.6215	9.41867	5.01611
-39.6169	13.5256	5.08447
-39.6107	15.3411	5.152832
-39.6048	21.752	5.22119
-39.5998	25.9983	5.28955
-39.5943	32.0934	5.35791
-39.5879	34.09679	5.42627
-39.5822	35.7954	5.49463
-39.578	35.4368	5.56299
-39.5701	37.2685	5.63135
-39.5655	42.3591	5.699707
-39.55925	42.8884	5.76807
-39.5534	46.915	5.83643
-39.5493	51.5878	5.90479
-39.5433	55.0097	5.97314
-39.5372	60.81176	6.0415
-39.5312	65.0175	6.10986
-39.5255	67.4155	6.17822
-39.5191	67.6452	6.246582
-39.5148	71.4126	6.31494
-39.50853	75.0689	6.3833
-39.5022	74.09655	6.45166
-39.49614	76.1074	6.52002
-39.4904	82.3078	6.58838
-39.4856	85.89888	6.65674
-39.4807	91.8314	6.7251
-39.4744	97.589	6.793457
-39.469	97.7219	6.86182
-39.4633	98.3394	6.93018
-39.45752	101.712	6.99854
-39.4514	108.792	7.06689
-39.4466	105.892	7.13525
-39.4405	108.534	7.20361
-39.4337	112.834	7.27197
-39.4289	116.097	7.340332
-39.4237	119.833	7.40869
-39.417	128.325	7.47705
-39.4115	130.075	7.54541
-39.4068	130.112	7.61377
-39.4012	133.7	7.68213
-39.3937	139.653	7.75049
-39.3886	138.377	7.81885
-39.384	138.735	7.887207
-39.37674	143.453	7.95557
-39.3715	145.176	8.02393
-39.36631	149.5134	8.09229
-39.3601	154.955	8.16064
-39.35392	159.997	8.229
-39.3485	160.365	8.29736
-39.344	165.861	8.36572
-39.3372	170.7081	8.434082
-39.3313	169.463	8.50244
-39.3263	169.768	8.5708
-39.3214	173.262	8.63916
-39.314	174.384	8.70752
-39.30788	178.707	8.77588
-39.3032	183.112	8.84424
-39.2961	185.688	8.9126
-39.2935	189.7852	8.980957
-39.2871	195.279	9.04932
-39.2794	199.378	9.11768
-39.2741	200.284	9.18604
-39.2703	201.332	9.25439
-39.2643	202.1496	9.32275
-39.2578	204.461	9.39111
-39.2522	209.369	9.45947
-39.2466	211.696	9.527832
-39.2414	212.929	9.59619
-39.2345	217.476	9.66455
-39.2295	225.142	9.73291
-39.224	228.039	9.80127
-39.2178	230.15	9.86963
-39.2117	233.199	9.93799
-39.2066	232.79	10.0063
-39.2001	234.633	10.0747
-39.19482	237.845	10.1431
-39.1895	239.902	10.2114
-39.18335	239.909	10.2798
-39.1768	244.191	10.3481
-39.1727	254.005	10.4165
-39.167	258.565	10.4849
-39.1608	259.231	10.5532
-39.1549	261.54	10.6216
-39.15	263.609	10.6899
-39.1436	261.686	10.7583
-39.1383	265.244	10.82666
-39.1318	268.766	10.89502
-39.1275	267.86	10.9634
-39.12043	270.701	11.0317
-39.1146	279.542	11.1001
-39.11	286.283	11.1685
-39.10479	288.076	11.2368
-39.0973	291.636	11.3052
-39.0931	292.545	11.3735
-39.0868	291.989	11.4419
-39.0809	295.016	11.5103
-39.0746	296.861	11.5786
-39.0691	295.905	11.647
-39.0653	298.67	11.7153
-39.0581	306.663	11.7837
-39.05349	311.756	11.8521
-39.0466	313.081	11.92041
-39.0424	317.294	11.98877
-39.03532	321.181	12.0571
-39.0296	320.469	12.1255
-39.02359	319.746	12.1938
-39.01823	320.846	12.2622
-39.0131	322.031	12.3306
-39.0066	322.783	12.3989
-39.0021	331.677	12.4673
-38.9961	335.7128	12.5356
-38.9888	339.127	12.604
-38.9845	343.201	12.6724
-38.9792	344.548	12.7407
-38.9733	349.186	12.8091
-38.9678	349.46	12.8774
-38.9624	349.554	12.9458
-38.9564	348.259	13.01416
-38.9497	349.954	13.08252
-38.9437	354.682	13.1509
-38.9388	358.8291	13.2192
-38.93351	362.401	13.2876
-38.9273	366.464	13.356
-38.922	368.377	13.4243
-38.915	372.952	13.4927
-38.9109	374.201	13.561
-38.9044	373.023	13.6294
-38.8982	371.601	13.6978
-38.8931	373.835	13.7661
-38.8868	379.343	13.8345
-38.8817	381.1488	13.9028
-38.8766	384.075	13.9712
-38.87	389.928	14.0396
-38.8656	391.179	14.10791
-38.8586	393.981	14.17627
-38.8536	399.095	14.2446
-38.8481	398.9408	14.313
-38.8436	392.383	14.3813
-38.8362	394.982	14.4497
-38.8303	402.504	14.5181
-38.8247	401.55	14.5864
-38.8196	403.767	14.6548
-38.8142	410.333	14.7231
-38.8069	412.523	14.7915
-38.8017	415.241	14.8599
-38.79697	417.976	14.9282
-38.79092	420.9328	14.9966
-38.7851	415.844	15.0649
-38.7802	415.94	15.1333
-38.7729	421.4465	15.20166
-38.7672	421.198	15.27002
-38.7633	421.964	15.3384
-38.757	426.233	15.4067
-38.7507	429.401	15.4751
-38.7451	433.044	15.5435
-38.7396	435.231	15.6118
-38.7339	437.138	15.6802
-38.7276	435.857	15.7485
-38.7225	432.475	15.8169
-38.7164	438.697	15.8853
-38.7109	437.5816	15.9536
-38.7046	438.408	16.022
-38.7006	440.718	16.0903
-38.6937	443.916	16.1587
-38.6875	448.173	16.2271
-38.6826	449.347	16.29541
-38.6766	451.406	16.36377
-38.6717	449.742	16.4321
-38.6647	448.78	16.5005
-38.6604	452.412	16.5688
-38.6544	449.8324	16.6372
-38.6481	450.446	16.7056
-38.6414	452.436	16.7739
-38.63747	454.887	16.8423
-38.6316	457.747	16.9106
-38.6249	461.724	16.979
-38.6195	461.2005	17.0474
-38.61367	459.628	17.1157
-38.609	460.4483	17.1841
-38.6028	463.222	17.2524
-38.5966	459.522	17.3208
-38.5908	458.263	17.38916
-38.5849	461.481	17.45752
-38.58	460.34	17.5259
-38.5743	462.492	17.5942
-38.5683	467.4292	17.6626
-38.5632	468.511	17.731
-38.5571	464.2674	17.7993
-38.5518	466.463	17.8677
-38.5466	470.388	17.936
-38.5399	466.3497	18.0044
-38.5344	462.9415	18.0728
-38.5289	463.822	18.1411
-38.5234	463.009	18.2095
-38.5176	464.53	18.2778
-38.5114	466.668	18.3462
-38.50531	469.96	18.4146
-38.5	469.347	18.48291
-38.4946	468.564	18.55127
-38.4885	472.552	18.6196
-38.4833	469.515	18.688
-38.478	465.586	18.7563
-38.4715	466.949	18.8247
-38.4658	465.214	18.8931
-38.46	465.942	18.9614
-38.4537	467.927	19.0298
-38.4482	470.35	19.0981
-38.4428	467.789	19.1665
-38.438	468.61	19.2349
-38.4309	473.292	19.3032
-38.426	472.761	19.3716
-38.42136	468.86	19.4399
-38.4156	467.162	19.5083
-38.40926	465.731	19.57666
-38.4034	467.562	19.64502
-38.3974	467.02	19.7134
-38.392	467.328	19.7817
-38.3857	467.539	19.8501
-38.3805	468.567	19.9185
-38.37508	473.417	19.9868
-38.3725	463.265	20.0161

Data Header:			0.254_hd_dimension_typeiv_4545_r0			Time:	40.0217	s	4/13/2019 8:16:54 PM
Data Acquisition:	Timed
Station Name:	ft40.cfg
Test File Name:	monotonic_0.2540_typeiv_hd_4545_dimension.tst
Displacement	Force	Running Time
mm	N	s
-38.3722	466.2948	20.0259
-38.366	466.149	20.0942
-38.35952	468.06	20.1626
-38.3556	471.927	20.231
-38.3482	470.344	20.2993
-38.3424	469.091	20.3677
-38.3372	470.249	20.436
-38.331	470.026	20.5044
-38.3257	467.106	20.5728
-38.3197	463.434	20.6411
-38.3147	465.211	20.7095
-38.3087	465.058	20.7778
-38.3031	468.701	20.8462
-38.297	469.813	20.9146
-38.2913	471.715	20.98291
-38.2868	469.286	21.05127
-38.2813	470.932	21.1196
-38.275	469.586	21.188
-38.2687	467.452	21.2563
-38.2633	466.327	21.3247
-38.2576	464.322	21.3931
-38.2525	462.546	21.4614
-38.2466	468.12	21.5298
-38.2397	468.497	21.5981
-38.2353	468.642	21.6665
-38.23	468.836	21.7349
-38.2243	472.661	21.8032
-38.2173	471.493	21.8716
-38.2122	468.477	21.9399
-38.2065	467.017	22.0083
-38.2006	466.934	22.07666
-38.1944	463.453	22.14502
-38.189	466.374	22.2134
-38.1835	467.939	22.2817
-38.178	468.009	22.3501
-38.1733	468.2312	22.4185
-38.1662	472.593	22.4868
-38.1616	473.8605	22.5552
-38.1557	469.089	22.6235
-38.15	469.172	22.6919
-38.1433	467.66	22.7603
-38.1366	463.737	22.8286
-38.1323	465.28	22.897
-38.1276	468.617	22.9653
-38.1203	467.532	23.0337
-38.11504	465.936	23.1021
-38.1091	469.951	23.17041
-38.104	474.012	23.23877
-38.0976	471.5672	23.3071
-38.0933	469.42	23.3755
-38.0878	468.275	23.4438
-38.0804	465.094	23.5122
-38.0757	464.949	23.5806
-38.0685	467.168	23.6489
-38.0639	465.747	23.7173
-38.0583	466.178	23.7856
-38.0532	467.895	23.854
-38.046	472.704	23.9224
-38.0407	469.504	23.9907
-38.0363	470.022	24.0591
-38.029	468.92	24.1274
-38.0247	467.251	24.1958
-38.0183	465.858	24.26416
-38.0123	464.073	24.33252
-38.0067	463.812	24.4009
-38.0009	463.437	24.4692
-37.9967	466.521	24.5376
-37.99	471.7774	24.606
-37.9839	469.625	24.6743
-37.978	470.692	24.7427
-37.97369	468.787	24.811
-37.968	466.347	24.8794
-37.9614	467.058	24.9478
-37.9554	464.244	25.0161
-37.9502	462.68	25.0845
-37.9434	463.004	25.1528
-37.9382	466.0997	25.2212
-37.9328	469.885	25.2896
-37.9268	470.62	25.35791
-37.9211	472.34	25.42627
-37.9159	470.873	25.4946
-37.9102	468.215	25.563
-37.9053	468.261	25.6313
-37.89838	467.177	25.6997
-37.8918	462.653	25.7681
-37.8869	460.423	25.8364
-37.8822	465.184	25.9048
-37.8755	468.722	25.9731
-37.8693	467.782	26.0415
-37.8654	469.953	26.1099
-37.8591	472.42	26.1782
-37.8535	468.172	26.2466
-37.84832	468.23	26.3149
-37.8418	468.796	26.3833
-37.836	463.262	26.45166
-37.8311	460.589	26.52002
-37.8239	464.8898	26.5884
-37.819	467.218	26.6567
-37.8124	467.231	26.7251
-37.8073	469.409	26.7935
-37.8014	471.827	26.8618
-37.7961	468.254	26.9302
-37.7903	468.477	26.9985
-37.7846	468.154	27.0669
-37.7796	464.776	27.1353
-37.7733	460.407	27.2036
-37.7667	461.3819	27.272
-37.7629	466.916	27.3403
-37.75515	466.09	27.4087
-37.7497	467.438	27.4771
-37.7442	469.6	27.54541
-37.739	469.79	27.61377
-37.7326	471.813	27.6821
-37.7271	467.662	27.7505
-37.7225	466.509	27.8188
-37.71648	461.232	27.8872
-37.71022	462.197	27.9556
-37.7044	463.88	28.0239
-37.6995	464.28	28.0923
-37.6937	465.162	28.1606
-37.6873	470.64	28.229
-37.6819	469.533	28.2974
-37.6773	470.486	28.3657
-37.6708	470.545	28.4341
-37.6653	466.265	28.5024
-37.6588	462.56	28.5708
-37.6543	463.4	28.63916
-37.6482	462.27	28.70752
-37.6424	463.932	28.7759
-37.6369	465.176	28.8442
-37.6316	467.408	28.9126
-37.626	468.885	28.981
-37.6204	471.311	29.0493
-37.6142	471.698	29.1177
-37.6084	465.328	29.186
-37.60355	463.549	29.2544
-37.5962	465.03	29.3228
-37.5907	463.744	29.3911
-37.5852	461.2912	29.4595
-37.5791	465.221	29.5278
-37.5742	467.259	29.5962
-37.569	466.576	29.6646
-37.5625	469.927	29.73291
-37.55727	472.505	29.80127
-37.5521	469.108	29.8696
-37.5458	465.1199	29.938
-37.5402	465.723	30.0063
-37.5344	466.967	30.0747
-37.5293	462.2572	30.1431
-37.5224	462.906	30.2114
-37.5171	465.76	30.2798
-37.5117	465.466	30.3481
-37.5068	467.832	30.4165
-37.4992	470.9137	30.4849
-37.4934	470.7	30.5532
-37.4898	466.315	30.6216
-37.4832	466.625	30.6899
-37.4775	468.483	30.7583
-37.4713	463.204	30.82666
-37.4654	461.676	30.89502
-37.4605	464.209	30.9634
-37.4544	464.832	31.0317
-37.4494	466.902	31.1001
-37.4437	468.847	31.1685
-37.4373	468.793	31.2368
-37.4323	466.74	31.3052
-37.4269	467.028	31.3735
-37.41901	468.132	31.4419
-37.4141	463.448	31.5103
-37.4082	463.173	31.5786
-37.4033	462.54	31.647
-37.3972	463.253	31.7153
-37.39259	464.64	31.7837
-37.3855	468.351	31.8521
-37.3813	469.266	31.92041
-37.3741	466.706	31.98877
-37.3692	467.34	32.0571
-37.3637	468.295	32.1255
-37.3578	463.333	32.1938
-37.3531	463.121	32.2622
-37.3456	462.457	32.3306
-37.3404	459.907	32.3989
-37.3352	464.616	32.4673
-37.3286	466.991	32.5356
-37.3231	466.109	32.604
-37.319	465.35	32.6724
-37.3114	468.2063	32.7407
-37.3057	469.553	32.8091
-37.3003	464.479	32.8774
-37.2947	465.161	32.9458
-37.2896	464.553	33.01416
-37.2834	460.238	33.08252
-37.2779	462.863	33.1509
-37.2719	466.177	33.2192
-37.2664	465.637	33.2876
-37.2612	464.656	33.356
-37.2545	468.243	33.4243
-37.2486	470.238	33.4927
-37.24398	465.241	33.561
-37.2386	463.48	33.6294
-37.2322	464.942	33.6978
-37.2268	462.517	33.7661
-37.22036	462.341	33.8345
-37.2149	464.02	33.9028
-37.2092	465.031	33.9712
-37.203	462.593	34.0396
-37.1977	467.342	34.10791
-37.1924	471.77	34.17627
-37.1869	467.07	34.2446
-37.181	466.428	34.313
-37.1759	464.347	34.3813
-37.1699	461.41	34.4497
-37.1627	462.152	34.5181
-37.1584	463.227	34.5864
-37.1528	462.976	34.6548
-37.1469	463.332	34.7231
-37.1406	464.508	34.7915
-37.1363	469.814	34.8599
-37.1295	468.909	34.9282
-37.1241	467.628	34.9966
-37.119	467.115	35.0649
-37.1138	463.599	35.1333
-37.1056	463.202	35.20166
-37.1015	463.761	35.27002
-37.0948	461.383	35.3384
-37.0887	460.654	35.4067
-37.0831	464.549	35.4751
-37.0782	467.892	35.5435
-37.0735	468.709	35.6118
-37.0673	467.599	35.6802
-37.0601	466.949	35.7485
-37.056	462.891	35.8169
-37.0498	463.0365	35.8853
-37.0442	462.637	35.9536
-37.0384	458.567	36.022
-37.034	458.23	36.0903
-37.0265	462.522	36.1587
-37.0212	466.782	36.2271
-37.0148	466.278	36.29541
-37.0102	467.789	36.36377
-37.0047	468.344	36.4321
-36.99778	464.473	36.5005
-36.99292	462.986	36.5688
-36.9875	463.563	36.6372
-36.9807	459.211	36.7056
-36.9756	456.917	36.7739
-36.9702	462.479	36.8423
-36.9633	466.164	36.9106
-36.9587	464.208	36.979
-36.95295	466.005	37.0474
-36.9484	469.489	37.1157
-36.9412	466.742	37.1841
-36.9357	465.706	37.2524
-36.9299	463.995	37.3208
-36.9247	461.197	37.38916
-36.9199	457.162	37.45752
-36.9136	460.4	37.5259
-36.9077	463.989	37.5942
-36.901	464.074	37.6626
-36.896	464.383	37.731
-36.8914	468.7659	37.7993
-36.8846	467.124	37.8677
-36.8785	468.546	37.936
-36.8728	463.816	38.0044
-36.86842	461.483	38.0728
-36.86417	458.948	38.1411
-36.8556	460.492	38.2095
-36.8506	461.609	38.2778
-36.8433	464.261	38.3462
-36.839	463.875	38.4146
-36.8336	466.848	38.48291
-36.8284	464.912	38.55127
-36.8219	467.356	38.6196
-36.8166	464.47	38.688
-36.81012	464.224	38.7563
-36.8046	459.126	38.8247
-36.79945	459.8569	38.8931
-36.7932	459.838	38.9614
-36.7873	460.7442	39.0298
-36.7827	462.802	39.0981
-36.7759	465.265	39.1665
-36.7718	465.584	39.2349
-36.766	467.865	39.3032
-36.7597	465.076	39.3716
-36.7529	462.386	39.4399
-36.7472	458.98	39.5083
-36.7423	459.601	39.57666
-36.7377	459.84	39.64502
-36.7314	458.178	39.7134
-36.7255	460.604	39.7817
-36.7192	463.467	39.8501
-36.7134	463.967	39.9185
-36.7074	464.083	39.9868
-36.705	459.475	40.0161

Data Header:			0.254_hd_dimension_typeiv_4545_r0			Time:	44.1367	s	4/13/2019 8:16:58 PM
Data Acquisition:	Timed
Station Name:	ft40.cfg
Test File Name:	monotonic_0.2540_typeiv_hd_4545_dimension.tst
Displacement	Force	Running Time
mm	N	s
-36.7049	457.729	40.0259
-36.7024	465.357	40.04541
-36.7019	461.117	40.0649
-36.70013	458.513	40.0845
-36.6987	467.015	40.104
-36.697	464.485	40.1235
-36.6955	456.085	40.1431
-36.6928	462.827	40.1626
-36.6921	466.174	40.1821
-36.6907	457.475	40.20166
-36.6883	462.905	40.2212
-36.6873	462.315	40.2407
-36.686	459.578	40.2603
-36.6829	460.088	40.2798
-36.6815	465.592	40.2993
-36.6809	461.017	40.3188
-36.6777	461.3251	40.3384
-36.67643	462.499	40.35791
-36.6751	461.6	40.3774
-36.6741	456.925	40.397
-36.6735	463.132	40.4165
-36.6708	465.669	40.436
-36.6692	460.077	40.4556
-36.6685	460.704	40.4751
-36.6659	463.942	40.4946
-36.6642	458.614	40.51416
-36.6621	462.644	40.5337
-36.6612	464.36	40.5532
-36.6594	459.548	40.5728
-36.6579	453.913	40.5923
-36.6556	465.962	40.6118
-36.6547	459.992	40.6313
-36.6523	458.533	40.6509
-36.6517	462.866	40.67041
-36.6498	462.852	40.6899
-36.6483	456.459	40.7095
-36.6464	464.463	40.729
-36.6454	461.687	40.7485
-36.6426	455.654	40.7681
-36.6416	462.804	40.7876
-36.6381	462.97	40.8071
-36.638	455.621	40.82666
-36.6366	458.434	40.8462
-36.6345	463.319	40.8657
-36.633	457.949	40.8853
-36.6304	459.229	40.9048
-36.63	460.003	40.9243
-36.6288	458.844	40.9438
-36.62582	457.024	40.9634
-36.625	463.367	40.98291
-36.6234	459.427	41.0024
-36.6213	456.195	41.022
-36.61993	460.508	41.0415
-36.6187	461.702	41.061
-36.6166	455.221	41.0806
-36.6149	459.784	41.1001
-36.614	460.126	41.1196
-36.6119	458.127	41.13916
-36.61	457.729	41.1587
-36.60865	463.7077	41.1782
-36.607	454.055	41.1978
-36.606	457.177	41.2173
-36.60326	464.677	41.2368
-36.6019	460.127	41.2563
-36.6008	452.971	41.2759
-36.5998	463.356	41.29541
-36.5968	458.195	41.3149
-36.5963	456.017	41.3345
-36.5942	459.916	41.354
-36.5929	459.496	41.3735
-36.5906	453.254	41.3931
-36.5887	459.0448	41.4126
-36.5872	461.0098	41.4321
-36.58564	453.088	41.45166
-36.5842	456.387	41.4712
-36.584	459.967	41.4907
-36.5811	453.108	41.5103
-36.5789	454.755	41.5298
-36.5783	460.311	41.5493
-36.5764	454.634	41.5688
-36.5757	456.318	41.5884
-36.5727	457.998	41.60791
-36.5712	456.652	41.6274
-36.56913	451.507	41.647
-36.5686	458.099	41.6665
-36.5681	457.949	41.686
-36.5647	452.949	41.7056
-36.5647	452.5751	41.7251
-36.5621	459.389	41.7446
-36.5602	451.966	41.76416
-36.5585	454.0975	41.7837
-36.5569	458.014	41.8032
-36.5556	453.856	41.8228
-36.5529	450.332	41.8423
-36.55246	459.319	41.8618
-36.5503	452.766	41.8813
-36.5491	450.614	41.9009
-36.5476	456.221	41.92041
-36.544	452.544	41.9399
-36.5445	443.061	41.9595
-36.5421	453.511	41.979
-36.5404	448.058	41.9985
-36.53857	441.222	42.0181
-36.5337	-76.5289	42.0376
-36.5335	-19.9148	42.0571
-36.5318	-48.4225	42.07666
-36.5313	-37.6868	42.0962
-36.5293	-38.50515	42.1157
-36.5281	-44.21619	42.1353
-36.5264	-42.6019	42.1548
-36.5249	-38.5487	42.1743
-36.5229	-43.1309	42.1938
-36.5229	-43.0533	42.2134
-36.5203	-39.3966	42.23291
-36.5189	-42.0869	42.2524
-36.51807	-43.24192	42.272
-36.5157	-40.4457	42.2915
-36.5143	-41.47361	42.311
-36.5121	-44.5081	42.3306
-36.5107	-41.0255	42.3501
-36.5093	-38.4793	42.3696
-36.50745	-42.0876	42.38916
-36.5056	-44.5455	42.4087
-36.50423	-37.629	42.4282
-36.5019	-42.3723	42.4478
-36.5016	-40.9076	42.4673
-36.4996	-37.4924	42.4868
-36.49818	-40.6282	42.5063
-36.4959	-46.1972	42.5259
-36.4948	-35.9181	42.54541
-36.4922	-40.15646	42.5649
-36.4906	-44.557	42.5845
-36.4896	-39.0613	42.604
-36.4881	-37.8447	42.6235
-36.4855	-46.2012	42.6431
-36.485	-39.3686	42.6626
-36.4832	-39.5896	42.6821
-36.4809	-43.4915	42.70166
-36.4805	-41.4674	42.7212
-36.4782	-37.0901	42.7407
-36.4759	-47.1229	42.7603
-36.4757	-43.4727	42.7798
-36.4739	-39.6376	42.7993
-36.4724	-41.9724	42.8188
-36.47044	-43.6918	42.8384
-36.4687	-39.1966	42.85791
-36.4673	-43.1454	42.8774
-36.4643	-43.8435	42.897
-36.4626	-38.4924	42.9165
-36.46233	-40.2932	42.936
-36.4608	-43.3122	42.9556
-36.4593	-41.94857	42.9751
-36.4563	-38.08202	42.9946
-36.4552	-43.404	43.01416
-36.4538	-44.1363	43.0337
-36.4525	-38.8685	43.0532
-36.4502	-41.5046	43.0728
-36.4502	-45.488	43.0923
-36.4474	-39.1723	43.1118
-36.4458	-43.1357	43.1313
-36.4447	-43.8393	43.1509
-36.44191	-39.6928	43.17041
-36.44091	-37.7907	43.1899
-36.44	-47.7909	43.2095
-36.4371	-38.5123	43.229
-36.4358	-39.6564	43.2485
-36.4336	-43.7555	43.2681
-36.4318	-42.7471	43.2876
-36.4315	-38.1336	43.3071
-36.4304	-47.2578	43.32666
-36.4277	-40.403	43.3462
-36.4267	-40.0298	43.3657
-36.42474	-43.0104	43.3853
-36.4233	-43.1537	43.4048
-36.4211	-38.67942	43.4243
-36.419	-43.054	43.4438
-36.4179	-43.3616	43.4634
-36.4162	-39.1984	43.48291
-36.4142	-39.9265	43.5024
-36.41349	-43.463	43.522
-36.4113	-40.1968	43.5415
-36.4102	-42.3993	43.561
-36.4084	-43.8953	43.5806
-36.4073	-42.0934	43.6001
-36.4052	-39.8489	43.6196
-36.4034	-42.7286	43.63916
-36.401	-43.3717	43.6587
-36.4009	-37.2721	43.6782
-36.3989	-42.1763	43.6978
-36.3982	-43.1088	43.7173
-36.3948	-38.8253	43.7368
-36.3932	-41.5226	43.7563
-36.3914	-44.6064	43.7759
-36.3904	-36.4059	43.79541
-36.3884	-41.4725	43.8149
-36.3866	-44.4091	43.8345
-36.3854	-39.0874	43.854
-36.3841	-36.17561	43.8735
-36.3825	-47.3838	43.8931
-36.3809	-40.0194	43.9126
-36.38	-39.0869	43.9321
-36.3765	-42.0341	43.95166
-36.3769	-43.7583	43.9712
-36.37339	-37.7799	43.9907
-36.3713	-46.415	44.0103
-36.3713	-41.0512	44.0298
-36.369	-38.5773	44.0493
-36.3676	-42.2735	44.0688
-36.3664	-44.5657	44.0884
-36.3649	-38.1345	44.10791
-36.3622	-42.0282	44.1274