File: data/processed_data_files/tensile/0.254_solid_dimension_typeiv_090_r(2).dat
MTS793|BTW|ENU|1|2|.|/|:|1|0|0|A

Data Header:			0.254_solid_dimension_typeiv_090_r0			Time:	20.0183	s	4/14/2019 1:39:32 AM
Data Acquisition:	Timed
Station Name:	ft40.cfg
Test File Name:	monotonic_0.2540_typeiv_solid_090_dimension.tst
Displacement	Force	Running Time
mm	N	s
-40.0409	-261.743	0.0222168
-40.0411	-262.972	0.0905762
-40.0355	-262.982	0.158936
-40.0296	-256.743	0.227295
-40.0237	-252.665	0.2956543
-40.0186	-252.053	0.364014
-40.013	-248.588	0.432373
-40.008	-247.73	0.500732
-40.002	-246.426	0.5690918
-39.9955	-240.986	0.637451
-39.9902	-236.375	0.705811
-39.9844	-232.994	0.77417
-39.9799	-231.935	0.8425293
-39.9738	-223.025	0.910889
-39.9669	-218.538	0.979248
-39.96069	-218.682	1.04761
-39.9562	-214.163	1.11597
-39.9505	-211.979	1.18433
-39.9449	-213.491	1.25269
-39.9385	-208.766	1.32104
-39.933	-202.493	1.3894
-39.9278	-200.477	1.45776
-39.9226	-199.437	1.526123
-39.9167	-191.705	1.59448
-39.9117	-184.969	1.66284
-39.904	-185.645	1.7312
-39.8985	-181.893	1.79956
-39.8934	-177.915	1.86792
-39.8876	-177.5795	1.93628
-39.8832	-173.526	2.00464
-39.8761	-169.766	2.072998
-39.8711	-167.774	2.14136
-39.86499	-165.672	2.20972
-39.8602	-157.281	2.27808
-39.8538	-151.578	2.34644
-39.8483	-150.2695	2.41479
-39.84148	-145.656	2.48315
-39.8365	-141.525	2.55151
-39.8313	-142.893	2.619873
-39.8246	-140.619	2.68823
-39.819	-135.967	2.75659
-39.8133	-134.529	2.82495
-39.80872	-131.944	2.89331
-39.8027	-123.786	2.96167
-39.7972	-116.912	3.03003
-39.7906	-116.473	3.09839
-39.7848	-112.307	3.166748
-39.7794	-106.592	3.23511
-39.7736	-106.914	3.30347
-39.7682	-104.188	3.37183
-39.7634	-101.108	3.44019
-39.7573	-98.7702	3.50854
-39.752	-98.5117	3.5769
-39.7449	-89.8229	3.64526
-39.7395	-84.05307	3.713623
-39.7339	-81.8508	3.78198
-39.7286	-74.4089	3.85034
-39.7227	-70.8179	3.9187
-39.7169	-70.0063	3.98706
-39.7104	-67.2313	4.05542
-39.7048	-65.0817	4.12378
-39.7	-65.3489	4.19214
-39.6937	-63.0824	4.260498
-39.6881	-56.231	4.32886
-39.6831	-49.8993	4.39722
-39.677	-46.4247	4.46558
-39.6715	-40.9523	4.53394
-39.6655	-37.8885	4.60229
-39.6597	-32.2115	4.67065
-39.6537	-30.8667	4.73901
-39.6484	-29.6128	4.807373
-39.6427	-30.4964	4.87573
-39.6378	-28.1106	4.94409
-39.6314	-22.16584	5.01245
-39.6262	-16.9992	5.08081
-39.6201	-12.672	5.14917
-39.6142	-8.20029	5.21753
-39.6094	-3.76862	5.28589
-39.6017	2.33384	5.354248
-39.5969	4.20665	5.42261
-39.59201	5.10886	5.49097
-39.58691	5.06586	5.55933
-39.5802	7.21347	5.62769
-39.575	14.4147	5.69604
-39.56934	15.2821	5.7644
-39.5628	20.978	5.83276
-39.558	26.4464	5.901123
-39.5511	30.3615	5.96948
-39.5472	36.0861	6.03784
-39.5409	41.4728	6.1062
-39.5362	41.6765	6.17456
-39.5287	40.17643	6.24292
-39.5232	42.9208	6.31128
-39.5178	49.6211	6.37964
-39.5112	48.6621	6.447998
-39.506	53.0675	6.51636
-39.5001	61.3071	6.58472
-39.4957	63.8814	6.65308
-39.4888	69.0661	6.72144
-39.4839	76.7782	6.78979
-39.4784	76.8261	6.85815
-39.4727	74.9163	6.92651
-39.4664	77.4643	6.994873
-39.4609	85.3661	7.06323
-39.4554	85.805	7.13159
-39.4494	87.4865	7.19995
-39.4431	94.9487	7.26831
-39.4373	98.1885	7.33667
-39.4325	105.141	7.40503
-39.4274	110.291	7.47339
-39.4196	112.025	7.541748
-39.41375	110.888	7.61011
-39.4102	114.41	7.67847
-39.40377	120.026	7.74683
-39.399	120.083	7.81519
-39.39175	123.013	7.88354
-39.3865	127.476	7.9519
-39.3813	132.723	8.02026
-39.3758	135.674	8.088623
-39.3697	143.326	8.15698
-39.3645	146.74	8.22534
-39.3586	145.507	8.2937
-39.3532	148.214	8.36206
-39.3479	155.324	8.43042
-39.341	155.305	8.49878
-39.335	154.636	8.56714
-39.3281	160.005	8.635498
-39.3247	163.601	8.70386
-39.31789	169.377	8.77222
-39.3141	174.411	8.84058
-39.3069	178.59	8.90894
-39.301	180.895	8.97729
-39.2949	184.039	9.04565
-39.291	189.251	9.11401
-39.2835	188.018	9.182373
-39.2781	188.117	9.25073
-39.273	192.8783	9.31909
-39.2668	194.811	9.38745
-39.2624	201.261	9.45581
-39.2556	209.298	9.52417
-39.2502	210.631	9.59253
-39.2438	212.886	9.66089
-39.2388	217.15	9.729248
-39.2328	221.8161	9.79761
-39.2275	220.191	9.86597
-39.221	224.748	9.93433
-39.2146	226.381	10.0027
-39.211	227.219	10.071
-39.2041	233.456	10.1394
-39.1987	238.551	10.2078
-39.1921	241.14	10.2761
-39.1874	244.418	10.3445
-39.1811	250.768	10.4128
-39.1765	255.234	10.4812
-39.1698	254.905	10.5496
-39.1632	258.632	10.61792
-39.1584	259.753	10.6863
-39.1527	259.836	10.7546
-39.1471	265.466	10.823
-39.1413	268.116	10.8914
-39.1363	272.21	10.9597
-39.13187	276.1225	11.0281
-39.1249	281.33	11.0964
-39.119	287.26	11.1648
-39.1133	288.04	11.2332
-39.1073	290.14	11.3015
-39.1007	291.343	11.3699
-39.0958	291.07	11.4382
-39.0905	295.0437	11.5066
-39.0851	298.981	11.575
-39.0786	299.648	11.6433
-39.07386	303.493	11.71167
-39.0676	311.444	11.78
-39.0619	316.736	11.8484
-39.05624	317.643	11.9167
-39.0505	321.923	11.9851
-39.0436	324.0499	12.0535
-39.0392	321.047	12.1218
-39.0327	325.114	12.1902
-39.0285	328.5	12.2585
-39.0218	327.807	12.3269
-39.0187	330.827	12.3953
-39.0103	339.26	12.4636
-39.005	344.822	12.532
-39.0001	346.913	12.6003
-38.9939	350.15	12.6687
-38.9878	351.666	12.7371
-38.9817	353.123	12.80542
-38.9771	353.987	12.8738
-38.97031	356.506	12.9421
-38.9659	355.622	13.0105
-38.9594	357.296	13.0789
-38.9532	366.398	13.1472
-38.9487	370.979	13.2156
-38.9429	372.049	13.2839
-38.9371	376.449	13.3523
-38.9312	379.793	13.4207
-38.9257	378.694	13.489
-38.9198	380.164	13.5574
-38.9139	381.227	13.6257
-38.9083	380.977	13.6941
-38.9032	378.691	13.7625
-38.8967	387.893	13.8308
-38.89143	393.667	13.89917
-38.8855	395.222	13.9675
-38.88023	399.4534	14.0359
-38.8744	403.751	14.1042
-38.8685	403.614	14.1726
-38.8614	403.157	14.241
-38.8568	403.894	14.3093
-38.8521	403.0415	14.3777
-38.8454	404.18	14.446
-38.8401	408.512	14.5144
-38.8339	412.908	14.5828
-38.8285	416.707	14.6511
-38.8225	419.4386	14.7195
-38.8176	423.255	14.7878
-38.8108	425.21	14.8562
-38.806	426.183	14.9246
-38.7999	425.366	14.99292
-38.7946	422.6962	15.0613
-38.7896	421.324	15.1296
-38.7828	426.853	15.198
-38.7766	429.553	15.2664
-38.772	432.045	15.3347
-38.7657	436.618	15.4031
-38.7612	438.22	15.4714
-38.75399	440.82	15.5398
-38.7487	441.859	15.6082
-38.743	442.14	15.6765
-38.7376	437.238	15.7449
-38.7311	435.91	15.8132
-38.7256	441.042	15.8816
-38.7198	442.682	15.95
-38.714	441.724	16.0183
-38.7086	447.626	16.08667
-38.7033	449.213	16.155
-38.6974	450.289	16.2234
-38.6913	454.474	16.2917
-38.6853	452.344	16.3601
-38.6806	448.397	16.4285
-38.6758	446.973	16.4968
-38.6699	450.891	16.5652
-38.663	446.377	16.6335
-38.6577	448.0361	16.7019
-38.6521	452.029	16.7703
-38.6471	454.978	16.8386
-38.6409	456.064	16.907
-38.6351	459.011	16.9753
-38.6293	458.9126	17.0437
-38.6229	452.141	17.1121
-38.6192	451.802	17.18042
-38.6104	454.44	17.2488
-38.6065	453.399	17.3171
-38.6021	450.23	17.3855
-38.595	453.855	17.4539
-38.5895	455.725	17.5222
-38.583	456.622	17.5906
-38.5777	460.546	17.6589
-38.5727	462.0647	17.7273
-38.5659	455.36	17.7957
-38.5602	453.3381	17.864
-38.5547	456.946	17.9324
-38.5498	455.098	18.0007
-38.54438	449.818	18.0691
-38.5392	451.865	18.1375
-38.5325	452.094	18.2058
-38.5267	453.046	18.27417
-38.5203	456.782	18.3425
-38.5151	457.117	18.4109
-38.5086	454.4935	18.4792
-38.50349	451.185	18.5476
-38.4986	455.843	18.616
-38.4937	451.094	18.6843
-38.4863	446.391	18.7527
-38.4806	449.332	18.821
-38.47509	448.011	18.8894
-38.4703	449.8815	18.9578
-38.4631	451.237	19.0261
-38.4581	454.431	19.0945
-38.4531	451.205	19.1628
-38.4457	449.3689	19.2312
-38.44178	451.728	19.2996
-38.4353	449.733	19.36792
-38.4298	445.43	19.4363
-38.4249	443.388	19.5046
-38.4176	443.628	19.573
-38.4139	445.427	19.6414
-38.4076	447.165	19.7097
-38.4013	448.679	19.7781
-38.3956	446.973	19.8464
-38.3888	446.819	19.9148
-38.3849	449.331	19.9832
-38.3815	439.132	20.0125

Data Header:			0.254_solid_dimension_typeiv_090_r0			Time:	28.1055	s	4/14/2019 1:39:40 AM
Data Acquisition:	Timed
Station Name:	ft40.cfg
Test File Name:	monotonic_0.2540_typeiv_solid_090_dimension.tst
Displacement	Force	Running Time
mm	N	s
-38.38089	444.343	20.0222
-38.37751	446.698	20.0515
-38.3759	439.239	20.0808
-38.3727	447.533	20.1101
-38.3714	439.403	20.1394
-38.3685	447.404	20.1687
-38.3652	439.059	20.198
-38.364	450.626	20.2273
-38.36187	439.066	20.2566
-38.3595	445.438	20.2859
-38.3566	437.404	20.3152
-38.355	446.679	20.3445
-38.3513	440.601	20.3738
-38.3485	443.394	20.4031
-38.3465	440.656	20.4324
-38.3446	442.273	20.46167
-38.3424	444.194	20.491
-38.33989	441.325	20.5203
-38.3365	444.953	20.5496
-38.3346	439.964	20.5789
-38.3326	446.59	20.6082
-38.3304	437.562	20.6375
-38.3275	446.661	20.6667
-38.3241	436.748	20.696
-38.3224	445.4	20.7253
-38.3197	439.806	20.7546
-38.3174	446.585	20.7839
-38.3148	436.293	20.8132
-38.3126	444.371	20.8425
-38.31	441.744	20.8718
-38.3074	444.257	20.9011
-38.3047	438.0864	20.93042
-38.3016	441.363	20.9597
-38.3012	442.872	20.989
-38.298	438.412	21.0183
-38.2953	439.948	21.0476
-38.2926	439.623	21.0769
-38.2907	444.006	21.1062
-38.2884	437.418	21.1355
-38.2863	441.78	21.1648
-38.28484	437.795	21.1941
-38.281	444.753	21.2234
-38.2784	437.994	21.2527
-38.2762	442.311	21.282
-38.2737	440.859	21.3113
-38.2714	441.052	21.3406
-38.2686	437.6962	21.3699
-38.2659	438.572	21.39917
-38.2639	439.922	21.4285
-38.261	438.2182	21.4578
-38.2594	442.165	21.4871
-38.256	437.439	21.5164
-38.2541	441.508	21.5457
-38.2508	436.296	21.575
-38.2494	441.216	21.6042
-38.2464	437.439	21.6335
-38.2432	443.081	21.6628
-38.242	437.69	21.6921
-38.23922	441.399	21.7214
-38.2377	438.014	21.7507
-38.2342	436.268	21.78
-38.2329	438.856	21.8093
-38.2294	439.962	21.8386
-38.2266	440.8634	21.86792
-38.226	436.21	21.8972
-38.2228	440.664	21.9265
-38.22	436.978	21.9558
-38.2169	441.655	21.9851
-38.2152	432.827	22.0144
-38.2132	444.577	22.0437
-38.2106	436.609	22.073
-38.2073	442.003	22.1023
-38.2056	431.9931	22.1316
-38.2028	444.2247	22.1609
-38.2002	436.726	22.1902
-38.1978	442.2226	22.2195
-38.1954	432.36	22.2488
-38.1923	439.541	22.2781
-38.18993	437.996	22.3074
-38.189	436.36	22.33667
-38.1862	435.969	22.366
-38.1831	436.622	22.3953
-38.1813	437.562	22.4246
-38.178	433.066	22.4539
-38.1754	440.056	22.4832
-38.1739	432.302	22.5125
-38.17	439.926	22.5417
-38.16901	435.18	22.571
-38.1665	443.451	22.6003
-38.1644	432.444	22.6296
-38.16143	439.534	22.6589
-38.1593	434.518	22.6882
-38.1562	441.4527	22.7175
-38.1545	435.452	22.7468
-38.1512	439.093	22.7761
-38.1496	437.641	22.80542
-38.1472	436.882	22.8347
-38.1442	434.024	22.864
-38.1417	435.961	22.8933
-38.1389	441.076	22.9226
-38.1357	433.966	22.9519
-38.1331	437.252	22.9812
-38.13097	432.091	23.0105
-38.12986	441.002	23.0398
-38.1269	434.0387	23.0691
-38.125	437.948	23.0984
-38.12331	433.898	23.1277
-38.1189	438.683	23.157
-38.1184	434.623	23.1863
-38.11459	433.495	23.2156
-38.1129	437.971	23.2449
-38.1107	436.389	23.27417
-38.1077	435.434	23.3035
-38.1054	432.282	23.3328
-38.1026	438.783	23.3621
-38.1006	432.114	23.3914
-38.0974	437.777	23.4207
-38.0947	433.5957	23.45
-38.0921	440.885	23.4792
-38.0902	433.59	23.5085
-38.0876	438.522	23.5378
-38.0855	433.317	23.5671
-38.08427	436.668	23.5964
-38.0802	435.1196	23.6257
-38.0771	439.9967	23.655
-38.076	435.791	23.6843
-38.0729	434.427	23.7136
-38.0712	434.9104	23.74292
-38.06834	435.229	23.7722
-38.0656	439.591	23.8015
-38.0635	430.853	23.8308
-38.0608	437.909	23.8601
-38.0586	433.153	23.8894
-38.0571	437.975	23.9187
-38.05476	426.595	23.948
-38.0505	440.389	23.9773
-38.05061	433.231	24.0066
-38.0464	439.3461	24.0359
-38.0433	429.035	24.0652
-38.04187	437.3	24.0945
-38.0395	433.682	24.1238
-38.0364	436.798	24.1531
-38.0328	430.611	24.1824
-38.0302	436.2406	24.21167
-38.02932	434.18	24.241
-38.027	431.971	24.2703
-38.02383	432.825	24.2996
-38.021	433.312	24.3289
-38.0198	438.583	24.3582
-38.0171	430.327	24.3875
-38.0144	437.794	24.4167
-38.0124	430.651	24.446
-38.0107	436.658	24.4753
-38.0067	431.332	24.5046
-38.0053	437.184	24.5339
-38.0025	430.4549	24.5632
-38	435.519	24.5925
-37.9979	431.832	24.6218
-37.9957	435.003	24.6511
-37.9929	432.338	24.68042
-37.9913	434.4744	24.7097
-37.9882	437.339	24.739
-37.9856	433.365	24.7683
-37.983	434.605	24.7976
-37.9812	430.473	24.8269
-37.9785	435.908	24.8562
-37.9757	431.313	24.8855
-37.9724	434.026	24.9148
-37.9709	431.326	24.9441
-37.9687	437.024	24.9734
-37.965	429.063	25.0027
-37.9634	432.657	25.032
-37.9602	432.617	25.0613
-37.9568	434.559	25.0906
-37.9561	431.339	25.1199
-37.9528	429.215	25.14917
-37.9514	434.437	25.1785
-37.9492	430.666	25.2078
-37.9466	432.5755	25.2371
-37.9438	426.218	25.2664
-37.9419	435.584	25.2957
-37.9381	427.264	25.325
-37.936	433.275	25.3542
-37.93396	425.598	25.3835
-37.9322	435.238	25.4128
-37.9289	426.831	25.4421
-37.9272	433.434	25.4714
-37.9242	429.721	25.5007
-37.92247	431.07	25.53
-37.9193	428.488	25.5593
-37.9166	431.457	25.5886
-37.9145	431.798	25.61792
-37.9115	427.849	25.6472
-37.9097	431.9093	25.6765
-37.9066	427.183	25.7058
-37.9047	431.685	25.7351
-37.90242	424.8468	25.7644
-37.8997	433.088	25.7937
-37.89782	427.778	25.823
-37.89463	433.889	25.8523
-37.8931	420.869	25.8816
-37.89	431.582	25.9109
-37.887	425.95	25.9402
-37.8858	429.351	25.9695
-37.8823	422.054	25.9988
-37.8813	431.006	26.0281
-37.8774	425.516	26.0574
-37.8765	422.989	26.08667
-37.8727	420.528	26.116
-37.8708	423.441	26.1453
-37.86816	422.276	26.1746
-37.8646	413.15	26.2039
-37.8632	403.667	26.2332
-37.8589	-23.3378	26.2625
-37.8576	-41.998	26.2917
-37.8543	-44.2221	26.321
-37.85376	-38.6485	26.3503
-37.8504	-42.6143	26.3796
-37.848	-40.17942	26.4089
-37.8457	-46.0002	26.4382
-37.8433	-41.4192	26.4675
-37.8405	-44.4907	26.4968
-37.8381	-41.74	26.5261
-37.8358	-40.282	26.55542
-37.8335	-41.704	26.5847
-37.8312	-43.2208	26.614
-37.82901	-44.8171	26.6433
-37.8268	-39.4571	26.6726
-37.8236	-42.8515	26.7019
-37.8213	-41.1104	26.7312
-37.8194	-44.4427	26.7605
-37.8164	-38.48613	26.7898
-37.8151	-45.3055	26.8191
-37.8114	-42.525	26.8484
-37.80854	-43.4571	26.8777
-37.80788	-38.342	26.907
-37.8043	-41.2553	26.9363
-37.80238	-43.5066	26.9656
-37.79911	-42.556	26.9949
-37.7981	-41.5681	27.02417
-37.7952	-41.3042	27.0535
-37.7924	-45.4515	27.0828
-37.79	-37.81823	27.1121
-37.7876	-44.9775	27.1414
-37.7855	-39.8141	27.1707
-37.7821	-47.9312	27.2
-37.7791	-36.94783	27.2292
-37.7763	-46.693	27.2585
-37.7757	-39.9272	27.2878
-37.7726	-45.7314	27.3171
-37.7702	-38.41927	27.3464
-37.76675	-44.492	27.3757
-37.7659	-39.9328	27.405
-37.7634	-42.3397	27.4343
-37.7602	-40.67812	27.4636
-37.7581	-40.9177	27.49292
-37.7555	-41.6549	27.5222
-37.7538	-38.3135	27.5515
-37.751	-46.9526	27.5808
-37.7492	-37.8162	27.6101
-37.7463	-41.4702	27.6394
-37.7436	-35.7429	27.6687
-37.7413	-46.2557	27.698
-37.738	-37.4125	27.7273
-37.7356	-44.5892	27.7566
-37.7328	-37.2458	27.7859
-37.7312	-46.2547	27.8152
-37.7288	-38.1784	27.8445
-37.7264	-41.3956	27.8738
-37.7235	-39.7433	27.9031
-37.72139	-44.1559	27.9324
-37.7195	-40.5347	27.96167
-37.7179	-39.6821	27.991
-37.7143	-42.4132	28.0203
-37.7128	-43.2051	28.0496
-37.7092	-43.0729	28.0789
-37.7081	-39.9827	28.0984