File: data/processed_data_files/tensile/0.254_hd_uprint_typei_4545_r(4).dat
MTS793|BTW|ENU|1|2|.|/|:|1|0|0|A

Data Header:			0.254_hd_uprint_typei_4545_r0			Time:	20.0181	s	4/15/2019 4:12:39 PM
Data Acquisition:	Timed
Station Name:	ft40.cfg
Test File Name:	monotonic_0.2540_typei_hd_4545_uprint.tst
Displacement	Force	Running Time
mm	N	s
9.97996	-126.549	0.0224609
9.98226	-123.14	0.0908203
9.98801	-119.997	0.15918
9.99366	-123.39	0.227539
9.99833	-121.574	0.295898
10.0046	-118.98	0.364258
10.0099	-116.256	0.432617
10.0146	-111.458	0.500977
10.0218	-106.809	0.569336
10.0268	-104.409	0.637695
10.0324	-104.899	0.706055
10.03866	-103.936	0.774414
10.0441	-99.508	0.842773
10.0502	-100.887	0.911133
10.0558	-101.789	0.979492
10.0605	-99.5794	1.04785
10.0666	-97.906	1.11621
10.0728	-92.8102	1.18457
10.0774	-87.8945	1.25293
10.0843	-82.044	1.32129
10.08994	-83.3114	1.38965
10.0957	-82.5565	1.45801
10.1016	-75.42981	1.52637
10.10654	-76.3366	1.59473
10.1132	-78.051	1.66309
10.1177	-76.3919	1.73145
10.1234	-72.5952	1.7998
10.1303	-71.7733	1.86816
10.13469	-66.6106	1.93652
10.1412	-63.3046	2.00488
10.1466	-60.1435	2.07324
10.1522	-58.146	2.1416
10.1587	-51.1665	2.20996
10.1635	-51.94038	2.27832
10.1696	-51.90794	2.34668
10.1752	-52.9741	2.41504
10.1819	-51.8486	2.4834
10.1871	-47.2408	2.55176
10.1914	-43.5705	2.62012
10.1988	-39.9781	2.68848
10.2037	-37.71199	2.75684
10.2093	-33.951	2.8252
10.2142	-28.0401	2.89355
10.2207	-27.157	2.96191
10.226	-26.1207	3.03027
10.2305	-27.0735	3.09863
10.2378	-28.4927	3.16699
10.2438	-22.8869	3.23535
10.24934	-21.4167	3.30371
10.2547	-17.8529	3.37207
10.2604	-16.1786	3.44043
10.2666	-8.87258	3.50879
10.27282	-1.68942	3.57715
10.2786	-2.27691	3.64551
10.2835	-0.656014	3.71387
10.289	3.40686	3.78223
10.2956	-0.00635084	3.85059
10.30084	2.62202	3.91895
10.307	6.11697	3.9873
10.3115	5.406384	4.05566
10.3168	9.920126	4.12402
10.3228	16.9553	4.19238
10.33026	25.4813	4.26074
10.3349	26.2888	4.3291
10.3406	28.9715	4.39746
10.34698	32.13821	4.46582
10.351	29.0329	4.53418
10.358	28.8891	4.60254
10.3638	31.4693	4.6709
10.3692	33.9292	4.73926
10.3743	33.6852	4.80762
10.3811	42.0361	4.87598
10.3866	51.3161	4.94434
10.3915	54.4817	5.0127
10.3972	56.51	5.08105
10.40311	59.3502	5.14941
10.4093	57.4427	5.21777
10.4136	58.3345	5.28613
10.4201	59.2038	5.35449
10.42577	61.422	5.42285
10.4311	62.6028	5.49121
10.43711	67.7508	5.55957
10.4424	77.3231	5.62793
10.44902	80.5725	5.69629
10.4537	83.702	5.76465
10.4607	87.7972	5.83301
10.4654	87.4437	5.90137
10.4722	89.4158	5.96973
10.4775	88.93042	6.03809
10.4825	88.8343	6.10645
10.4899	88.6369	6.1748
10.4945	94.9726	6.24316
10.4994	105.01	6.31152
10.5053	107.145	6.37988
10.5114	110.559	6.44824
10.5169	116.336	6.5166
10.5227	117.749	6.58496
10.5285	120.499	6.65332
10.534	117.818	6.72168
10.5397	119.004	6.79004
10.5459	118.278	6.8584
10.5511	120.555	6.92676
10.5566	129.33	6.99512
10.5634	133.819	7.06348
10.5678	138.987	7.13184
10.5746	145.606	7.2002
10.579	147.621	7.26855
10.5864	148.943	7.33691
10.5921	149.676	7.40527
10.5958	147.367	7.47363
10.6035	146.535	7.54199
10.6068	151.193	7.61035
10.6125	157.1003	7.67871
10.6194	160.08	7.74707
10.6253	167.16	7.81543
10.6306	172.903	7.88379
10.63585	174.198	7.95215
10.6425	179.954	8.02051
10.6472	181.554	8.08887
10.6543	178.329	8.15723
10.6587	175.446	8.22559
10.6652	181.4886	8.29395
10.6703	183.016	8.3623
10.6756	187.21	8.43066
10.6822	194.151	8.49902
10.6869	201.236	8.56738
10.6937	202.13	8.63574
10.6995	208.397	8.7041
10.7048	211.719	8.77246
10.7107	208.6917	8.84082
10.7166	205.872	8.90918
10.7212	210.178	8.97754
10.7281	212.052	9.0459
10.7337	215.221	9.11426
10.7402	220.587	9.18262
10.7447	227.696	9.25098
10.7495	229.458	9.31934
10.7563	235.845	9.3877
10.7623	239.712	9.45605
10.7676	238.276	9.52441
10.77227	235.52	9.59277
10.7787	240.8671	9.66113
10.7842	242.699	9.72949
10.78997	242.6958	9.79785
10.796	247.075	9.86621
10.8017	254.363	9.93457
10.8079	257.912	10.00293
10.8128	262.288	10.0713
10.8191	266.52	10.1396
10.8244	268.843	10.208
10.8294	268.405	10.2764
10.8356	271.368	10.3447
10.8414	272.202	10.4131
10.8475	271.439	10.4814
10.8523	274.746	10.5498
10.8597	279.299	10.6182
10.8637	285.336	10.6865
10.8695	292.76	10.7549
10.8757	294.793	10.8232
10.88143	296.214	10.8916
10.8866	298.45	10.96
10.89282	302.664	11.02832
10.89832	301.758	11.09668
10.9044	300.961	11.165
10.9092	303.3667	11.2334
10.9154	306.944	11.3018
10.9216	311.277	11.3701
10.9277	317.5235	11.4385
10.9332	321.5921	11.5068
10.9387	324.547	11.5752
10.9444	327.756	11.6436
10.9502	332.56	11.7119
10.9552	331.463	11.7803
10.9611	331.598	11.8486
10.96682	333.7886	11.917
10.97276	334.26	11.9854
10.9785	337.971	12.0537
10.9841	343.107	12.12207
10.9903	347.898	12.19043
10.99454	349.645	12.2588
11.0018	354.69	12.3271
11.0075	362.35	12.3955
11.0123	362.776	12.4639
11.01743	358.692	12.5322
11.0244	362.716	12.6006
11.02949	363.166	12.6689
11.0355	363.44	12.7373
11.0408	368.189	12.8057
11.04639	374.987	12.874
11.052	376.323	12.9424
11.0579	381.0408	13.0107
11.0639	390.23	13.0791
11.06976	391.749	13.1475
11.0753	390.235	13.21582
11.08049	392.948	13.28418
11.0856	390.801	13.3525
11.0921	390.12	13.4209
11.0977	395.265	13.4893
11.1043	399.917	13.5576
11.1096	403.472	13.626
11.115	407.165	13.6943
11.1205	416.3425	13.7627
11.1265	419.45	13.8311
11.1326	416.754	13.8994
11.1379	420.5	13.9678
11.1444	418.084	14.0361
11.1491	419.659	14.1045
11.154	420.768	14.1729
11.1609	424.781	14.2412
11.1653	426.982	14.30957
11.1719	432.374	14.37793
11.1767	441.046	14.4463
11.1836	446.433	14.5146
11.1896	447.517	14.583
11.1948	448.133	14.6514
11.1996	447.374	14.7197
11.2053	448.299	14.7881
11.2118	448.199	14.8564
11.2177	449.06	14.9248
11.2232	453.484	14.9932
11.2288	457.1944	15.0615
11.2341	466.906	15.1299
11.2404	470.806	15.1982
11.2454	474.833	15.2666
11.2515	477.133	15.335
11.2562	475.212	15.40332
11.2637	475.573	15.47168
11.2689	475.338	15.54
11.2739	474.609	15.6084
11.2785	474.508	15.6768
11.2851	481.475	15.7451
11.2911	489.9357	15.8135
11.29694	494.435	15.8818
11.3017	498.9	15.9502
11.3087	503.152	16.0186
11.3144	502.364	16.0869
11.3211	503.545	16.1553
11.3252	503.14	16.2236
11.3307	503.89	16.292
11.3367	500.822	16.3604
11.3419	505.373	16.4287
11.3479	515.442	16.49707
11.35446	518.588	16.56543
11.3593	523.261	16.6338
11.366	529.5907	16.7021
11.3709	529.204	16.7705
11.3771	529.745	16.8389
11.3829	529.902	16.9072
11.3887	531.282	16.9756
11.3927	526.231	17.0439
11.3998	529.163	17.1123
11.4045	537.735	17.1807
11.4109	542.116	17.249
11.4168	545.743	17.3174
11.4211	553.057	17.3857
11.4286	557.877	17.4541
11.4337	557.906	17.5225
11.44002	556.509	17.59082
11.4447	556.954	17.65918
11.451	552.8941	17.7275
11.4571	552.422	17.7959
11.4626	559.939	17.8643
11.4678	563.844	17.9326
11.4734	569.597	18.001
11.4788	574.94	18.0693
11.4843	578.684	18.1377
11.4908	581.6142	18.2061
11.4961	581.708	18.2744
11.5015	581.296	18.3428
11.5072	578.9942	18.4111
11.5138	577.989	18.4795
11.5197	583.063	18.5479
11.5246	584.8656	18.6162
11.5308	589.982	18.68457
11.53567	595.675	18.75293
11.5429	601.724	18.8213
11.54838	605.4693	18.8896
11.5537	606.759	18.958
11.5587	607.251	19.0264
11.5646	602.919	19.0947
11.5715	603.128	19.1631
11.576	605.817	19.2314
11.582	607.588	19.2998
11.58727	614.009	19.3682
11.5944	617.945	19.4365
11.599	620.399	19.5049
11.6037	627.749	19.5732
11.6101	631.815	19.6416
11.6154	629.257	19.71
11.622	627.392	19.77832
11.628	625.794	19.84668
11.6325	630.734	19.915
11.6389	629.892	19.9834
11.6411	638.011	20.0127

Data Header:			0.254_hd_uprint_typei_4545_r0			Time:	40.0193	s	4/15/2019 4:12:59 PM
Data Acquisition:	Timed
Station Name:	ft40.cfg
Test File Name:	monotonic_0.2540_typei_hd_4545_uprint.tst
Displacement	Force	Running Time
mm	N	s
11.6414	640.372	20.0225
11.6481	641.912	20.09082
11.6535	640.739	20.15918
11.659	639.459	20.2275
11.6652	637.126	20.2959
11.6704	641.4314	20.3643
11.676	649.366	20.4326
11.6815	654.354	20.501
11.6875	659.563	20.5693
11.6939	662.055	20.6377
11.6994	664.195	20.7061
11.7046	666.1416	20.7744
11.7106	662.684	20.8428
11.7151	662.285	20.9111
11.7225	659.822	20.9795
11.72817	664.42	21.0479
11.7325	667.505	21.1162
11.7386	671.959	21.18457
11.7442	679.084	21.25293
11.7482	683.585	21.3213
11.7556	685.751	21.3896
11.7608	690.145	21.458
11.7667	688.979	21.5264
11.7722	684.716	21.5947
11.7785	682.174	21.6631
11.7843	686.711	21.7314
11.78989	689.672	21.7998
11.7952	690.887	21.8682
11.8012	697.8584	21.9365
11.8073	702.806	22.0049
11.8117	703.042	22.0732
11.8183	709.341	22.1416
11.82385	710.96	22.21
11.8298	705.787	22.27832
11.8351	702.26	22.34668
11.8413	708.457	22.415
11.847	708.083	22.4834
11.8532	709.661	22.5518
11.8578	713.751	22.6201
11.8638	719.693	22.6885
11.8708	723.1958	22.7568
11.8754	728.464	22.8252
11.8817	732.614	22.8936
11.88716	729.337	22.9619
11.8925	723.883	23.0303
11.8988	727.93	23.0986
11.9035	730.3	23.167
11.9097	726.168	23.2354
11.9155	732.196	23.3037
11.9218	738.074	23.37207
11.9261	741.161	23.44043
11.9324	745.805	23.5088
11.9387	749.36	23.5771
11.9435	749.392	23.6455
11.95	747.493	23.7139
11.9551	749.013	23.7822
11.96037	749.6618	23.8506
11.9667	749.603	23.9189
11.9719	749.728	23.9873
11.9772	754.375	24.0557
11.9835	758.335	24.124
11.989	762.003	24.1924
11.9945	766.162	24.2607
12.00159	767.828	24.3291
12.0056	766.973	24.3975
12.0116	769.875	24.46582
12.0184	768.722	24.53418
12.0233	767.345	24.6025
12.0287	766.612	24.6709
12.035	768.361	24.7393
12.0395	773.06	24.8076
12.0456	777.111	24.876
12.0521	781.198	24.9443
12.0576	781.469	25.0127
12.0632	783.994	25.0811
12.069	787.71	25.1494
12.0756	786.205	25.2178
12.0801	783.955	25.2861
12.0858	785.121	25.3545
12.0921	781.983	25.4229
12.0978	786.646	25.4912
12.1029	790.747	25.55957
12.1092	794.933	25.62793
12.1145	797.036	25.6963
12.1208	799.587	25.7646
12.12599	804.936	25.833
12.1321	802.832	25.9014
12.1373	800.622	25.9697
12.1423	800.671	26.0381
12.1498	799.138	26.1064
12.155	798.876	26.1748
12.161	804.665	26.2432
12.1661	806.2	26.3115
12.17222	808.292	26.3799
12.1772	812.726	26.4482
12.1826	820.615	26.5166
12.1892	819.674	26.585
12.1945	816.6181	26.65332
12.20053	816.349	26.72168
12.206	815.722	26.79
12.2111	813.8125	26.8584
12.2173	815.217	26.9268
12.2229	819.23	26.9951
12.2277	820.062	27.0635
12.2345	823.52	27.1318
12.2412	831.937	27.2002
12.2456	833.603	27.2686
12.2513	829.614	27.3369
12.2571	830.488	27.4053
12.262	828.56	27.4736
12.2685	824.532	27.542
12.2742	827.284	27.6104
12.2803	828.816	27.6787
12.2861	829.134	27.74707
12.2918	832.863	27.81543
12.2973	841.353	27.8838
12.3027	843.747	27.9521
12.3078	841.165	28.0205
12.3137	841.5675	28.0889
12.319	837.162	28.1572
12.32493	838.2038	28.2256
12.3307	836.419	28.2939
12.3376	838.459	28.3623
12.3415	838.6532	28.4307
12.3472	839.685	28.499
12.3531	848.111	28.5674
12.3604	851.369	28.6357
12.366	851.175	28.7041
12.3709	854.79	28.7725
12.3772	850.482	28.84082
12.38364	848.507	28.90918
12.38868	847.284	28.9775
12.3944	845.811	29.0459
12.4001	843.82	29.1143
12.40511	847.171	29.1826
12.4115	854.587	29.251
12.4169	857.128	29.3193
12.4229	860.513	29.3877
12.4275	860.648	29.4561
12.4336	859.145	29.5244
12.439	858.883	29.5928
12.4448	856.101	29.6611
12.4493	853.773	29.7295
12.4569	850.806	29.7979
12.4614	851.787	29.8662
12.4682	859.688	29.93457
12.4735	862.8493	30.00293
12.4787	864.343	30.0713
12.4841	869.594	30.1396
12.4908	866.22	30.208
12.4964	863.67	30.2764
12.5016	863.847	30.3447
12.5077	860.567	30.4131
12.5137	856.903	30.4814
12.5197	858.541	30.5498
12.5243	864.579	30.6182
12.5299	865.235	30.6865
12.5372	869.112	30.7549
12.5411	873.824	30.8232
12.5478	873.522	30.8916
12.5534	872.452	30.96
12.5596	871.003	31.02832
12.5651	868.177	31.09668
12.5701	862.231	31.165
12.5754	862.668	31.2334
12.5816	869.447	31.3018
12.5875	868.188	31.3701
12.5933	870.932	31.4385
12.5993	875.16	31.5068
12.6039	876.926	31.5752
12.611	877.7	31.6436
12.6157	876.98	31.7119
12.621	873.438	31.7803
12.6276	868.029	31.8486
12.63217	865.757	31.917
12.6393	870.156	31.9854
12.6445	871.336	32.0537
12.65	873.0437	32.12207
12.6568	877.3764	32.19043
12.6606	877.921	32.2588
12.66718	881.261	32.3271
12.6732	881.755	32.3955
12.6786	879.367	32.4639
12.6845	875.025	32.5322
12.69	873.412	32.6006
12.6945	873.938	32.6689
12.7001	872.594	32.7373
12.7076	874.925	32.8057
12.7126	878.072	32.874
12.71863	880.157	32.9424
12.7236	884.035	33.0107
12.729	884.807	33.0791
12.7344	883.22	33.1475
12.741	878.261	33.21582
12.74649	877.235	33.28418
12.7525	878.307	33.3525
12.7579	875.165	33.4209
12.7638	876.893	33.4893
12.7702	878.9856	33.5576
12.7759	880.192	33.626
12.7814	884.961	33.6943
12.7867	887.254	33.7627
12.7916	883.996	33.8311
12.7982	881.607	33.8994
12.8037	882.396	33.9678
12.8089	881.422	34.0361
12.8152	875.919	34.1045
12.8205	878.1969	34.1729
12.8269	879.836	34.2412
12.8327	880.472	34.30957
12.8378	884.687	34.37793
12.8439	889.146	34.4463
12.8499	887.882	34.5146
12.8546	884.359	34.583
12.8612	887.098	34.6514
12.8662	884.961	34.7197
12.8724	879.06	34.7881
12.8786	880.626	34.8564
12.8845	882.413	34.9248
12.8887	880.421	34.9932
12.8937	885.335	35.0615
12.9011	890.585	35.1299
12.9058	891.224	35.1982
12.9118	887.461	35.2666
12.91792	890.37	35.335
12.9232	891.227	35.40332
12.92933	885.938	35.47168
12.9351	884.321	35.54
12.9408	883.299	35.6084
12.946	882.957	35.6768
12.9519	885.021	35.7451
12.9575	890.7962	35.8135
12.9633	891.049	35.8818
12.9695	890.072	35.9502
12.97543	892.542	36.0186
12.9806	892.566	36.0869
12.9866	889.293	36.1553
12.9913	885.8786	36.2236
12.9972	884.896	36.292
13.0043	885.745	36.3604
13.0082	885.963	36.4287
13.0143	889.044	36.49707
13.0199	889.698	36.56543
13.0261	890.019	36.6338
13.0317	894.732	36.7021
13.0376	896.342	36.7705
13.0437	892.666	36.8389
13.0489	890.307	36.9072
13.0552	886.783	36.9756
13.0603	884.955	37.0439
13.0661	886.074	37.1123
13.071	887.221	37.1807
13.07723	886.9989	37.249
13.0822	890.698	37.3174
13.089	896.4566	37.3857
13.0952	897.173	37.4541
13.0997	895.765	37.5225
13.1049	892.366	37.59082
13.1117	890.345	37.65918
13.1176	887.966	37.7275
13.1225	888.018	37.7959
13.1293	888.209	37.8643
13.1352	885.932	37.9326
13.1406	889.62	38.001
13.1459	896.13	38.0693
13.1513	898.6	38.1377
13.15764	895.906	38.2061
13.1632	895.481	38.2744
13.169	893.303	38.3428
13.1743	889.946	38.4111
13.18	888.431	38.4795
13.1862	887.725	38.5479
13.1918	884.114	38.6162
13.1964	884.439	38.68457
13.203	892.358	38.75293
13.2072	894.8512	38.8213
13.2138	893.541	38.8896
13.2206	895.23	38.958
13.2261	895.126	39.0264
13.2312	890.148	39.0947
13.2365	888.062	39.1631
13.243	886.389	39.2314
13.2487	881.532	39.2998
13.2539	882.329	39.3682
13.259	888.193	39.4365
13.2649	892.119	39.5049
13.2708	889.076	39.5732
13.2762	892.069	39.6416
13.2827	889.553	39.71
13.2878	890.02	39.77832
13.2942	884.931	39.84668
13.2997	883.727	39.915
13.3049	880.1236	39.9834
13.3064	891.478	40.0127

Data Header:			0.254_hd_uprint_typei_4545_r0			Time:	48.6267	s	4/15/2019 4:13:08 PM
Data Acquisition:	Timed
Station Name:	ft40.cfg
Test File Name:	monotonic_0.2540_typei_hd_4545_uprint.tst
Displacement	Force	Running Time
mm	N	s
13.30899	889.246	40.0225
13.3118	879.702	40.0518
13.3136	892.723	40.0811
13.3158	882.339	40.1104
13.3183	890.949	40.1396
13.3206	878.713	40.1689
13.3233	890.533	40.1982
13.326	881.63	40.2275
13.328	889.4082	40.2568
13.3297	883.239	40.2861
13.333	885.9895	40.31543
13.3357	885.322	40.3447
13.3371	884.141	40.374
13.3396	891.463	40.40332
13.3422	882.801	40.4326
13.3443	890.522	40.4619
13.3472	881.969	40.4912
13.3501	892.2077	40.5205
13.3531	877.591	40.5498
13.3549	891.185	40.5791
13.358	881.505	40.6084
13.3591	892.29	40.6377
13.3618	879.678	40.667
13.3645	888.911	40.6963
13.3676	884.261	40.7256
13.3689	886.983	40.7549
13.3721	880.676	40.78418
13.3747	888.522	40.8135
13.3767	888.125	40.8428
13.3796	885.2854	40.87207
13.3812	885.358	40.9014
13.3833	882.63	40.9307
13.3851	890.857	40.96
13.3889	881.417	40.9893
13.3915	888.0036	41.0186
13.3942	881.291	41.0479
13.3962	891.188	41.0771
13.3995	879.16	41.1064
13.4004	887.755	41.1357
13.4032	882.3454	41.165
13.4062	889.38	41.1943
13.4087	883.677	41.2236
13.4115	885.573	41.25293
13.41357	884.746	41.2822
13.4162	883.0412	41.3115
13.4177	886.173	41.34082
13.4199	885.92	41.3701
13.4226	887.016	41.3994
13.425	881.821	41.4287
13.4282	890.717	41.458
13.4302	882.357	41.4873
13.4328	890.107	41.5166
13.4351	883.414	41.5459
13.4375	890.858	41.5752
13.4402	880.983	41.6045
13.4427	885.85	41.6338
13.4455	882.098	41.6631
13.4473	890.092	41.6924
13.4508	885.839	41.72168
13.453	883.658	41.751
13.4544	886.198	41.7803
13.45605	885.336	41.80957
13.46	888.084	41.8389
13.4614	878.662	41.8682
13.4654	890.148	41.8975
13.4664	880.977	41.9268
13.4703	890.565	41.9561
13.4724	878.399	41.9854
13.4747	890.278	42.0146
13.4772	880.816	42.0439
13.4795	890.821	42.0732
13.4813	881.457	42.1025
13.4849	888.108	42.1318
13.4877	882.593	42.1611
13.4882	884.292	42.19043
13.4911	885.681	42.2197
13.494	885.411	42.249
13.4954	887.849	42.27832
13.4988	882.607	42.3076
13.5014	888.697	42.3369
13.5042	878.854	42.3662
13.5065	890.127	42.3955
13.5083	880.799	42.4248
13.5111	892.2793	42.4541
13.5134	877.376	42.4834
13.5158	890.086	42.5127
13.5183	880.186	42.542
13.52062	888.506	42.5713
13.5238	880.7818	42.6006
13.5258	887.327	42.6299
13.5287	884.437	42.65918
13.5307	884.656	42.6885
13.533	881.928	42.7178
13.5354	882.749	42.74707
13.5385	889.347	42.7764
13.54096	882.636	42.8057
13.5416	886.878	42.835
13.54526	881.26	42.8643
13.5475	888.739	42.8936
13.5496	878.013	42.9229
13.5522	887.2049	42.9521
13.5545	881.7749	42.9814
13.5576	887.995	43.0107
13.5606	879.627	43.04
13.5611	883.76	43.0693
13.5649	881.5827	43.0986
13.5677	885.269	43.12793
13.5694	885.08	43.1572
13.5718	884.617	43.1865
13.5744	884.953	43.21582
13.5769	881.108	43.2451
13.5798	886.699	43.2744
13.5824	880.048	43.3037
13.5836	888.202	43.333
13.587	880.891	43.3623
13.5892	889.735	43.3916
13.5924	879.807	43.4209
13.5934	884.51	43.4502
13.597	879.517	43.4795
13.59798	889.231	43.5088
13.6017	882.493	43.5381
13.6031	881.859	43.5674
13.6064	882.34	43.59668
13.6076	884.563	43.626
13.6108	884.614	43.6553
13.6137	878.1322	43.68457
13.61528	886.092	43.7139
13.6183	881.178	43.7432
13.62106	885.686	43.7725
13.6229	874.377	43.8018
13.6263	887.904	43.8311
13.6278	879.962	43.8604
13.6302	887.873	43.8896
13.6332	876.635	43.9189
13.6364	887.635	43.9482
13.6382	878.323	43.9775
13.6401	884.131	44.0068
13.64234	878.358	44.0361
13.6462	885.949	44.06543
13.6475	880.564	44.0947
13.65041	881.579	44.124
13.6532	881.832	44.15332
13.6548	878.9892	44.1826
13.6573	884.438	44.2119
13.6593	878.011	44.2412
13.66236	886.607	44.2705
13.66502	876.262	44.2998
13.6676	886.322	44.3291
13.66986	876.085	44.3584
13.6719	887.582	44.3877
13.6751	876.829	44.417
13.6775	884.896	44.4463
13.6798	877.739	44.4756
13.6817	882.938	44.5049
13.6842	876.097	44.53418
13.6867	881.152	44.5635
13.6897	883.628	44.5928
13.6918	882.5813	44.62207
13.6952	880.492	44.6514
13.6966	876.8653	44.6807
13.6992	886.415	44.71
13.7016	877.221	44.7393
13.70287	882.947	44.7686
13.7071	877.36	44.7979
13.7088	885.9118	44.8271
13.7117	873.777	44.8564
13.7127	881.252	44.8857
13.7158	877.74	44.915
13.7177	884.3808	44.9443
13.7212	878.435	44.9736
13.7234	879.355	45.00293
13.7263	881.43	45.0322
13.72774	879.1358	45.0615
13.7305	879.068	45.09082
13.7326	877.982	45.1201
13.7356	883.727	45.1494
13.7383	875.956	45.1787
13.7402	883.104	45.208
13.7427	874.413	45.2373
13.7458	885.352	45.2666
13.7481	875.363	45.2959
13.7497	884.39	45.3252
13.7536	876.6	45.3545
13.7557	881.129	45.3838
13.7578	875.353	45.4131
13.76005	881.83	45.4424
13.7625	878.4552	45.47168
13.7653	875.642	45.501
13.7674	879.8548	45.5303
13.7697	876.263	45.55957
13.7726	882.236	45.5889
13.77504	870.819	45.6182
13.7774	883.801	45.6475
13.7787	875.882	45.6768
13.782	884.304	45.7061
13.7838	869.677	45.7354
13.7877	881.521	45.7646
13.7901	872.438	45.7939
13.7923	880.791	45.8232
13.7935	871.218	45.8525
13.7963	881.3045	45.8818
13.7996	872.958	45.9111
13.8011	875.894	45.94043
13.8042	874.832	45.9697
13.8066	876.043	45.999
13.80929	876.73	46.02832
13.8105	871.901	46.0576
13.8138	877.406	46.0869
13.817	870.91	46.1162
13.8186	877.681	46.1455
13.8212	870.3573	46.1748
13.8242	881.982	46.2041
13.8263	869.364	46.2334
13.8284	879.176	46.2627
13.8299	867.671	46.292
13.83351	877.303	46.3213
13.8361	868.259	46.3506
13.8381	875.551	46.3799
13.841	873.015	46.40918
13.8432	875.112	46.4385
13.8453	869.297	46.4678
13.8477	868.79	46.49707
13.8509	873.271	46.5264
13.8532	868.194	46.5557
13.85612	869.762	46.585
13.8582	864.804	46.6143
13.859	870.078	46.6436
13.8615	858.9	46.6729
13.8657	864.0686	46.7021
13.86653	856.8	46.7314
13.8693	864.026	46.7607
13.8723	833.845	46.79
13.8802	-58.2687	46.8193
13.8791	-51.1589	46.8486
13.8812	-45.5753	46.87793
13.8838	-48.7214	46.9072
13.8861	-49.7475	46.9365
13.88851	-45.6555	46.96582
13.89	-52.2071	46.9951
13.8925	-44.9393	47.0244
13.8945	-55.83289	47.0537
13.8979	-43.6088	47.083
13.89973	-55.5541	47.1123
13.9006	-42.6922	47.1416
13.9047	-53.4341	47.1709
13.9076	-44.103	47.2002
13.9101	-52.4258	47.2295
13.9122	-44.5963	47.2588
13.9138	-49.0417	47.2881
13.917	-48.1375	47.3174
13.9195	-47.8118	47.34668
13.9214	-46.8509	47.376
13.9244	-45.909	47.4053
13.9253	-53.8504	47.43457
13.9285	-44.1002	47.4639
13.9313	-51.7834	47.4932
13.9326	-43.5116	47.5225
13.9362	-56.1576	47.5518
13.9392	-43.0083	47.5811
13.9401	-51.3682	47.6104
13.9434	-41.3158	47.6396
13.94528	-55.1585	47.6689
13.9484	-42.2468	47.6982
13.95028	-50.6488	47.7275
13.9545	-44.2337	47.7568
13.9546	-53.1278	47.7861
13.95862	-44.6786	47.81543
13.961	-47.0055	47.8447
13.9625	-51.3764	47.874
13.966	-49.7248	47.90332
13.9672	-48.4034	47.9326
13.9693	-46.1267	47.9619
13.97299	-50.52158	47.9912
13.9759	-43.041	48.0205
13.9775	-51.9478	48.0498
13.9801	-44.2017	48.0791
13.9828	-53.517	48.1084
13.9844	-43.547	48.1377
13.9864	-51.7156	48.167
13.991	-42.3724	48.1963
13.99307	-50.23254	48.2256
13.9945	-44.5991	48.2549
13.9965	-50.3185	48.28418
13.9998	-45.9963	48.3135
14.0016	-45.6474	48.3428
14.004	-46.8521	48.37207
14.006	-47.007	48.4014
14.0093	-51.3519	48.4307
14.0118	-43.3696	48.46
14.014	-52.2347	48.4893
14.0169	-45.0278	48.5186
14.0186	-52.91674	48.5479
14.0222	-41.2565	48.5771
14.0239	-52.503	48.6064
14.0253	-50.2647	48.6162