File: data/processed_data_files/tensile/0.254_hd_uprint_typeiv_090_r(4).dat
MTS793|BTW|ENU|1|2|.|/|:|1|0|0|A

Data Header:			0.254_hd_uprint_typeiv_090_r0			Time:	20.0229	s	4/13/2019 11:04:23 PM
Data Acquisition:	Timed
Station Name:	ft40.cfg
Test File Name:	monotonic_0.2540_typeiv_solid_4545_uprint.tst
Displacement	Force	Running Time
mm	N	s
-40.04422	-153.728	0.0280762
-40.0402	-152.808	0.0964355
-40.0347	-151.815	0.164795
-40.0299	-147.006	0.2331543
-40.025	-143.299	0.301514
-40.019	-146.0883	0.369873
-40.0118	-141.91	0.438232
-40.0075	-137.431	0.5065918
-40.0013	-134.526	0.574951
-39.9952	-127.615	0.643311
-39.9892	-120.517	0.71167
-39.9854	-117.775	0.7800293
-39.9791	-117.989	0.848389
-39.9732	-110.919	0.916748
-39.9668	-108.258	0.985107
-39.9624	-109.509	1.05347
-39.9552	-108.0661	1.12183
-39.9496	-103.661	1.19019
-39.9444	-99.1184	1.25854
-39.9384	-95.7221	1.3269
-39.9329	-89.4869	1.39526
-39.928	-85.7064	1.463623
-39.9226	-83.3222	1.53198
-39.9155	-76.7533	1.60034
-39.9102	-73.9916	1.6687
-39.9042	-74.6816	1.73706
-39.8992	-73.2259	1.80542
-39.8918	-71.1306	1.87378
-39.887	-64.9609	1.94214
-39.8818	-63.9707	2.010498
-39.8764	-58.4306	2.07886
-39.8697	-55.20129	2.14722
-39.8643	-49.7046	2.21558
-39.85918	-44.1755	2.28394
-39.853	-40.4897	2.35229
-39.8475	-40.6134	2.42065
-39.8417	-37.1176	2.48901
-39.8353	-37.0688	2.557373
-39.8298	-33.67363	2.62573
-39.8254	-29.9374	2.69409
-39.8191	-27.2522	2.76245
-39.8133	-23.422	2.83081
-39.8072	-17.5199	2.89917
-39.8024	-12.5598	2.96753
-39.79512	-9.07598	3.03589
-39.7902	-5.31799	3.104248
-39.7849	-4.871582	3.17261
-39.779	-4.57554	3.24097
-39.7731	0.195265	3.30933
-39.7679	3.60224	3.37769
-39.7621	4.61192	3.44604
-39.7556	10.3833	3.5144
-39.7508	14.8381	3.58276
-39.7452	21.1897	3.651123
-39.74017	23.48382	3.71948
-39.7323	28.8721	3.78784
-39.7277	31.7303	3.8562
-39.7227	30.8755	3.92456
-39.7168	35.0404	3.99292
-39.7109	38.1168	4.06128
-39.7061	37.7779	4.12964
-39.6989	39.9489	4.197998
-39.6945	47.8528	4.26636
-39.6885	51.7073	4.33472
-39.6831	56.15424	4.40308
-39.6767	62.0096	4.47144
-39.6703	65.0043	4.53979
-39.6652	65.5408	4.60815
-39.6602	69.7114	4.67651
-39.6543	71.9652	4.744873
-39.6477	70.7938	4.81323
-39.6431	72.17	4.88159
-39.6359	80.7791	4.94995
-39.6315	84.5954	5.01831
-39.62598	87.1096	5.08667
-39.62011	92.9474	5.15503
-39.6146	99.631	5.22339
-39.6085	99.9523	5.291748
-39.6026	102.379	5.36011
-39.5969	105.589	5.42847
-39.5918	102.684	5.49683
-39.5859	104.226	5.56519
-39.58	111.685	5.63354
-39.5743	115.302	5.7019
-39.5699	118.004	5.77026
-39.563	126.531	5.838623
-39.5577	128.9386	5.90698
-39.5519	132.85	5.97534
-39.5452	136.196	6.0437
-39.5399	137.965	6.11206
-39.5335	136.916	6.18042
-39.5291	137.111	6.24878
-39.5225	143.069	6.31714
-39.5178	146.595	6.385498
-39.512	149.643	6.45386
-39.5074	155.1758	6.52222
-39.5006	159.883	6.59058
-39.4942	165.7941	6.65894
-39.48822	167.769	6.72729
-39.4836	169.765	6.79565
-39.4768	168.125	6.86401
-39.4721	170.137	6.932373
-39.4657	175.808	7.00073
-39.4598	176.161	7.06909
-39.4544	180.672	7.13745
-39.4492	184.891	7.20581
-39.44331	190.816	7.27417
-39.4372	196.096	7.34253
-39.4318	199.986	7.41089
-39.4262	203.128	7.479248
-39.4225	201.671	7.54761
-39.4155	203.879	7.61597
-39.4088	206.991	7.68433
-39.403	207.961	7.75269
-39.3968	210.961	7.82104
-39.3914	215.968	7.8894
-39.3865	220.482	7.95776
-39.3799	227.532	8.026123
-39.3743	231.433	8.09448
-39.3695	233.342	8.16284
-39.3637	233.054	8.2312
-39.3572	236.417	8.29956
-39.3512	239.001	8.36792
-39.3462	237.55	8.43628
-39.3404	242.159	8.50464
-39.3348	243.872	8.572998
-39.3299	249.754	8.64136
-39.3242	257.499	8.70972
-39.3182	261.019	8.77808
-39.3109	262.2612	8.84644
-39.3076	267.526	8.91479
-39.3014	269.103	8.98315
-39.2944	268.106	9.05151
-39.2896	268.515	9.119873
-39.2845	271.2421	9.18823
-39.2783	273.882	9.25659
-39.2726	279.383	9.32495
-39.2664	285.071	9.39331
-39.26025	290.252	9.46167
-39.25388	291.114	9.53003
-39.2495	294.942	9.59839
-39.2428	301.043	9.666748
-39.2387	299.3685	9.73511
-39.2314	299.2374	9.80347
-39.2277	302.171	9.87183
-39.2212	302.3215	9.94019
-39.2155	307.232	10.0085
-39.2094	314.801	10.0769
-39.2042	317.323	10.1453
-39.1991	316.457	10.2136
-39.193	323.887	10.282
-39.1864	330.221	10.3503
-39.1809	328.982	10.4187
-39.1756	327.438	10.4871
-39.1694	330.609	10.55542
-39.1651	331.164	10.6238
-39.15802	335.375	10.6921
-39.1524	341.265	10.7605
-39.1478	343.328	10.8289
-39.1419	344.454	10.8972
-39.13588	350.6655	10.9656
-39.1302	358.158	11.0339
-39.1248	356.261	11.1023
-39.1183	358.512	11.1707
-39.1127	361.435	11.239
-39.1079	359.769	11.3074
-39.1014	359.978	11.3757
-39.0961	365.863	11.4441
-39.0897	366.784	11.5125
-39.08453	369.234	11.5808
-39.0798	376.388	11.64917
-39.0737	382.672	11.7175
-39.0677	383.546	11.7859
-39.0609	384.401	11.8542
-39.0567	385.927	11.9226
-39.05098	386.322	11.991
-39.0448	387.857	12.0593
-39.0387	390.562	12.1277
-39.0326	392.196	12.196
-39.0262	393.039	12.2644
-39.02187	398.9852	12.3328
-39.0168	404.27	12.4011
-39.0108	406.542	12.4695
-39.0055	407.36	12.5378
-38.9982	410.523	12.6062
-38.99308	413.02	12.6746
-38.988	413.549	12.74292
-38.9818	412.936	12.8113
-38.9761	411.963	12.8796
-38.9693	414.5444	12.948
-38.96603	421.407	13.0164
-38.9601	423.316	13.0847
-38.954	425.874	13.1531
-38.9485	430.661	13.2214
-38.9413	430.582	13.2898
-38.937	434.811	13.3582
-38.9303	432.912	13.4265
-38.9246	431.551	13.4949
-38.91964	430.448	13.5632
-38.9143	432.511	13.6316
-38.9079	437.47	13.7
-38.9017	437.899	13.7683
-38.8966	444.872	13.83667
-38.8917	446.079	13.905
-38.8848	447.607	13.9734
-38.8795	449.6286	14.0417
-38.8746	451.174	14.1101
-38.8677	446.127	14.1785
-38.8621	444.555	14.2468
-38.8568	448.814	14.3152
-38.8517	450.0788	14.3835
-38.8453	449.978	14.4519
-38.8402	453.568	14.5203
-38.8339	458.585	14.5886
-38.82832	457.091	14.657
-38.8223	461.298	14.7253
-38.8172	461.994	14.7937
-38.812	458.4238	14.8621
-38.8063	455.813	14.93042
-38.8001	458.395	14.9988
-38.793	458.501	15.0671
-38.7882	457.528	15.1355
-38.7826	462.505	15.2039
-38.776	462.858	15.2722
-38.771	464.349	15.3406
-38.7659	468.95	15.4089
-38.7602	469.122	15.4773
-38.7539	465.859	15.5457
-38.7475	462.637	15.614
-38.7421	463.544	15.6824
-38.7371	462.724	15.7507
-38.7321	459.8374	15.8191
-38.7255	464.185	15.8875
-38.7205	464.8222	15.9558
-38.7142	466.48	16.02417
-38.7088	470.052	16.0925
-38.703	472.351	16.1609
-38.6974	466.399	16.2292
-38.6906	463.485	16.2976
-38.6865	468.442	16.366
-38.6808	462.278	16.4343
-38.6746	460.096	16.5027
-38.6687	462.453	16.571
-38.6626	462.447	16.6394
-38.6577	464.7789	16.7078
-38.65073	466.855	16.7761
-38.646	470.333	16.8445
-38.6397	464.626	16.9128
-38.6345	463.62	16.9812
-38.6297	466.017	17.0496
-38.624	460.643	17.11792
-38.6166	457.581	17.1863
-38.61068	457.674	17.2546
-38.6062	457.918	17.323
-38.6	460.662	17.3914
-38.5946	462.299	17.4597
-38.5883	463.558	17.5281
-38.5844	460.09	17.5964
-38.5765	460.199	17.6648
-38.5732	462.454	17.7332
-38.5659	456.9339	17.8015
-38.5608	453.623	17.8699
-38.5559	453.392	17.9382
-38.5485	452.158	18.0066
-38.5433	454.987	18.075
-38.5366	454.987	18.1433
-38.5314	457.3309	18.21167
-38.5255	455.2821	18.28
-38.5209	457.348	18.3484
-38.5147	457.733	18.4167
-38.5089	454.246	18.4851
-38.5038	451.011	18.5535
-38.4972	449.957	18.6218
-38.4926	449.723	18.6902
-38.4862	450.727	18.7585
-38.4815	451.714	18.8269
-38.4755	450.743	18.8953
-38.4696	450.599	18.9636
-38.4625	455.41	19.032
-38.4583	455.173	19.1003
-38.4519	451.383	19.1687
-38.4462	452.166	19.2371
-38.4402	447.283	19.30542
-38.43491	446.781	19.3738
-38.4287	446.891	19.4421
-38.424	446.511	19.5105
-38.4178	446.387	19.5789
-38.4122	448.17	19.6472
-38.4059	452.2883	19.7156
-38.4008	451.8562	19.7839
-38.3951	450.852	19.8523
-38.3898	450.419	19.9207
-38.3846	446.193	19.989
-38.38147	446.2514	20.0183

Data Header:			0.254_hd_uprint_typeiv_090_r0			Time:	25.0339	s	4/13/2019 11:04:28 PM
Data Acquisition:	Timed
Station Name:	ft40.cfg
Test File Name:	monotonic_0.2540_typeiv_solid_4545_uprint.tst
Displacement	Force	Running Time
mm	N	s
-38.38039	451.738	20.0281
-38.3789	447.686	20.0476
-38.37635	444.379	20.0671
-38.3758	447.517	20.08667
-38.3736	448.66	20.1062
-38.3723	446.493	20.1257
-38.3701	447.034	20.1453
-38.3687	448.683	20.1648
-38.3677	444.764	20.1843
-38.3658	446.824	20.2039
-38.3638	451.016	20.2234
-38.363	445.665	20.24292
-38.3618	441.651	20.2625
-38.3595	451.374	20.282
-38.35857	447.014	20.3015
-38.3561	443.095	20.321
-38.3555	448.955	20.3406
-38.3539	448.861	20.3601
-38.3521	441.037	20.3796
-38.3495	449.666	20.39917
-38.3476	445.8486	20.4187
-38.3466	441.948	20.4382
-38.3445	448.067	20.4578
-38.3429	452.18	20.4773
-38.34198	441.363	20.4968
-38.3386	445.231	20.5164
-38.3378	448.421	20.5359
-38.336	444.757	20.55542
-38.3342	446.325	20.575
-38.33342	450.191	20.5945
-38.3314	443.554	20.614
-38.3304	442.607	20.6335
-38.3284	448.7934	20.6531
-38.3269	444.62	20.6726
-38.32518	442.19	20.6921
-38.3237	445.596	20.71167
-38.3222	448.445	20.7312
-38.32	441.2048	20.7507
-38.3184	444.101	20.7703
-38.3176	446.752	20.7898
-38.3154	444.64	20.8093
-38.3137	442.898	20.8289
-38.3128	448.087	20.8484
-38.3109	444.302	20.86792
-38.3092	443.863	20.8875
-38.3076	450.053	20.907
-38.3062	446.2821	20.9265
-38.3044	439.794	20.946
-38.3013	449.859	20.9656
-38.3007	444.618	20.9851
-38.2994	441.019	21.0046
-38.2978	445.817	21.02417
-38.2957	447.654	21.0437
-38.29311	438.715	21.0632
-38.29237	445.937	21.0828
-38.2912	446.307	21.1023
-38.2899	441.017	21.1218
-38.28849	442.924	21.1414
-38.2861	450.216	21.1609
-38.2845	440.701	21.18042
-38.2824	440.975	21.2
-38.2811	445.943	21.2195
-38.27948	443.294	21.239
-38.27813	441.761	21.2585
-38.27586	445.793	21.2781
-38.27536	444.603	21.2976
-38.2734	439.816	21.3171
-38.2716	445.401	21.33667
-38.2698	444.516	21.3562
-38.2682	440.854	21.3757
-38.2666	443.022	21.3953
-38.2653	447.162	21.4148
-38.2635	439.955	21.4343
-38.2605	440.9039	21.4539
-38.2604	445.788	21.4734
-38.2584	443.776	21.49292
-38.2561	439.089	21.5125
-38.2548	448.5744	21.532
-38.2536	442.012	21.5515
-38.2522	440.403	21.571
-38.2507	446.842	21.5906
-38.249	445.65	21.6101
-38.2469	436.057	21.6296
-38.2447	446.8858	21.64917
-38.24437	446.111	21.6687
-38.2429	440.45	21.6882
-38.2403	444.37	21.7078
-38.2384	447.092	21.7273
-38.23703	438.363	21.7468
-38.2353	444.456	21.7664
-38.2349	445.537	21.7859
-38.23373	440.023	21.80542
-38.2309	441.117	21.825
-38.2294	447.963	21.8445
-38.2275	440.477	21.864
-38.2266	438.711	21.8835
-38.2251	443.588	21.9031
-38.2219	442.7001	21.9226
-38.2213	439.94	21.9421
-38.2205	442.8988	21.96167
-38.2178	442.973	21.9812
-38.2166	439.5928	22.0007
-38.2147	442.235	22.0203
-38.2137	445.208	22.0398
-38.2121	440.342	22.0593
-38.2102	439.187	22.0789
-38.2085	448.7081	22.0984
-38.206	439.287	22.11792
-38.20565	439.706	22.1375
-38.2027	445.685	22.157
-38.2017	443.571	22.1765
-38.2004	435.869	22.196
-38.198	446.328	22.2156
-38.1975	441.168	22.2351
-38.19503	438.01	22.2546
-38.1932	443.723	22.27417
-38.1921	446.651	22.2937
-38.19	435.089	22.3132
-38.1892	441.987	22.3328
-38.1866	444.242	22.3523
-38.1854	439.349	22.3718
-38.1835	441.3089	22.3914
-38.18177	445.453	22.4109
-38.1794	437.921	22.43042
-38.1796	440.224	22.45
-38.1769	444.773	22.4695
-38.1752	439.053	22.489
-38.1739	437.435	22.5085
-38.1726	444.096	22.5281
-38.1711	442.145	22.5476
-38.1691	436.548	22.5671
-38.167	443.365	22.58667
-38.1647	442.909	22.6062
-38.1642	438.873	22.6257
-38.1622	439.691	22.6453
-38.1607	443.023	22.6648
-38.16	436.334	22.6843
-38.1571	440.279	22.7039
-38.1554	445.105	22.7234
-38.1553	439.898	22.74292
-38.1533	434.124	22.7625
-38.1509	444.92	22.782
-38.1489	438.752	22.8015
-38.1466	437.186	22.821
-38.1465	442.033	22.8406
-38.1453	442.892	22.8601
-38.1426	433.308	22.8796
-38.1419	442.879	22.89917
-38.1399	440.684	22.9187
-38.1368	435.353	22.9382
-38.1364	439.446	22.9578
-38.1356	443.468	22.9773
-38.1332	433.943	22.9968
-38.1325	439.16	23.0164
-38.1307	440.944	23.0359
-38.13028	437.881	23.05542
-38.1268	438.016	23.075
-38.1249	440.198	23.0945
-38.1231	436.037	23.114
-38.122	435.306	23.1335
-38.1205	439.9118	23.1531
-38.1197	439.6467	23.1726
-38.1165	435.263	23.1921
-38.116	438.424	23.21167
-38.1131	441.365	23.2312
-38.1117	431.748	23.2507
-38.1112	437.034	23.2703
-38.10944	440.6322	23.2898
-38.1064	434.89	23.3093
-38.1051	433.474	23.3289
-38.104	439.917	23.3484
-38.1024	430.492	23.36792
-38.1007	434.076	23.3875
-38.10043	439.878	23.407
-38.0976	436.069	23.4265
-38.0956	427.158	23.446
-38.0937	438.099	23.4656
-38.0917	435.434	23.4851
-38.0893	429.531	23.5046
-38.0901	432.951	23.52417
-38.08815	430.806	23.5437
-38.0827	-47.5465	23.5632
-38.0823	-20.0849	23.5828
-38.0821	-42.4117	23.6023
-38.0788	-42.1524	23.6218
-38.0779	-40.4157	23.6414
-38.07653	-35.5051	23.6609
-38.0748	-43.8039	23.68042
-38.07423	-43.1207	23.7
-38.0729	-38.0962	23.7195
-38.0714	-41.7872	23.739
-38.0696	-43.5025	23.7585
-38.0683	-39.2677	23.7781
-38.0667	-42.5653	23.7976
-38.0641	-44.048	23.8171
-38.0621	-39.34869	23.83667
-38.0608	-39.2843	23.8562
-38.0596	-44.7496	23.8757
-38.0578	-42.7775	23.8953
-38.0559	-38.7398	23.9148
-38.05471	-44.5356	23.9343
-38.0526	-42.6633	23.9539
-38.0529	-37.8028	23.9734
-38.0498	-41.5156	23.99292
-38.0477	-44.9077	24.0125
-38.04747	-36.8805	24.032
-38.0457	-43.8904	24.0515
-38.0444	-46.3487	24.071
-38.0418	-37.1404	24.0906
-38.0408	-38.04089	24.1101
-38.0382	-48.568	24.1296
-38.0364	-39.1776	24.14917
-38.0352	-39.99	24.1687
-38.0342	-43.5285	24.1882
-38.0319	-41.9967	24.2078
-38.0299	-36.8224	24.2273
-38.0288	-46.21323	24.2468
-38.02652	-41.8187	24.2664
-38.0255	-40.07	24.2859
-38.025	-43.6361	24.30542
-38.0215	-43.07309	24.325
-38.0199	-38.2995	24.3445
-38.0189	-42.7913	24.364
-38.0171	-44.4531	24.3835
-38.01519	-40.4656	24.4031
-38.0138	-40.5796	24.4226
-38.0117	-42.7779	24.4421
-38.0124	-41.4588	24.46167
-38.0096	-39.853	24.4812
-38.0077	-45.883	24.5007
-38.0072	-39.826	24.5203
-38.0043	-38.8046	24.5398
-38.003	-42.074	24.5593
-38.0012	-46.3825	24.5789
-37.9989	-36.4327	24.5984
-37.9979	-43.5557	24.61792
-37.9962	-43.5682	24.6375
-37.9949	-39.8305	24.657
-37.9933	-40.2608	24.6765
-37.9922	-46.8478	24.696
-37.9906	-37.812	24.7156
-37.9883	-42.9192	24.7351
-37.9869	-45.1931	24.7546
-37.9847	-39.8059	24.77417
-37.9833	-37.1692	24.7937
-37.982	-48.397	24.8132
-37.9803	-41.1957	24.8328
-37.97826	-38.8149	24.8523
-37.9765	-43.4997	24.8718
-37.9746	-43.5108	24.8914
-37.9738	-37.9391	24.9109
-37.9722	-44.3421	24.93042
-37.97028	-43.7641	24.95
-37.9692	-39.7248	24.9695
-37.9672	-42.1324	24.989
-37.9658	-43.489	25.0085
-37.9634	-39.5231	25.0281