File: data/processed_data_files/tensile/0.254_solid_dimension_typeiv_090_r(6).dat
MTS793|BTW|ENU|1|2|.|/|:|1|0|0|A

Data Header:			0.254_solid_dimension_typeiv_090_r0			Time:	20.0176	s	4/14/2019 1:49:42 AM
Data Acquisition:	Timed
Station Name:	ft40.cfg
Test File Name:	monotonic_0.2540_typeiv_solid_090_dimension.tst
Displacement	Force	Running Time
mm	N	s
-40.0415	-31.8305	0.0224609
-40.0399	-32.58736	0.0908203
-40.0334	-22.2599	0.15918
-40.0268	-20.7158	0.227539
-40.0218	-20.703	0.295898
-40.0155	-15.7853	0.364258
-40.011	-14.2866	0.432617
-40.0052	-9.9783	0.500977
-39.9987	-7.5922	0.569336
-39.9936	-1.83873	0.637695
-39.9876	-1.65429	0.706055
-39.9822	3.13833	0.774414
-39.977	13.6708	0.842773
-39.9701	15.7728	0.911133
-39.96492	19.3186	0.979492
-39.9593	23.59441	1.04785
-39.95348	22.896	1.11621
-39.9479	25.3765	1.18457
-39.9434	29.23078	1.25293
-39.9361	32.0086	1.32129
-39.9306	35.9552	1.38965
-39.9245	40.027	1.45801
-39.9195	48.2828	1.52637
-39.915	52.9005	1.59473
-39.9072	56.0118	1.66309
-39.9011	59.7713	1.73145
-39.8974	60.1095	1.7998
-39.8899	64.3498	1.86816
-39.885	67.2916	1.93652
-39.8804	67.1444	2.00488
-39.8748	69.9102	2.07324
-39.8682	76.8974	2.1416
-39.8628	82.722	2.20996
-39.8562	86.5658	2.27832
-39.8531	92.4954	2.34668
-39.8459	94.0708	2.41504
-39.8395	97.32753	2.4834
-39.8339	100.563	2.55176
-39.8279	103.663	2.62012
-39.8231	103.082	2.68848
-39.81609	105.478	2.75684
-39.812	112.692	2.8252
-39.8056	115.874	2.89355
-39.80061	120.563	2.96191
-39.7934	127.106	3.03027
-39.789	130.189	3.09863
-39.7822	134.4034	3.16699
-39.77784	139.402	3.23535
-39.771	140.143	3.30371
-39.7662	138.9122	3.37207
-39.7596	141.339	3.44043
-39.7553	146.601	3.50879
-39.7484	150.631	3.57715
-39.7428	152.54	3.64551
-39.7367	160.459	3.71387
-39.7324	165.135	3.78223
-39.7252	168.764	3.85059
-39.7207	172.792	3.91895
-39.7148	175.221	3.9873
-39.709	172.617	4.05566
-39.7028	174.812	4.12402
-39.698	181.685	4.19238
-39.6916	181.774	4.26074
-39.6858	186.5545	4.3291
-39.6809	193.9951	4.39746
-39.6748	197	4.46582
-39.6694	201.3	4.53418
-39.6632	206.694	4.60254
-39.6576	209.684	4.6709
-39.6515	206.34	4.73926
-39.646	210.154	4.80762
-39.64072	214.845	4.87598
-39.6356	216.477	4.94434
-39.6283	218.911	5.0127
-39.6227	225.895	5.08105
-39.618	229.451	5.14941
-39.6119	235.617	5.21777
-39.6062	240.923	5.28613
-39.6009	244.081	5.35449
-39.5946	242.665	5.42285
-39.589	244.8528	5.49121
-39.583	251.158	5.55957
-39.578	249.232	5.62793
-39.5719	251.689	5.69629
-39.5666	257	5.76465
-39.5615	260.893	5.83301
-39.5542	268.3533	5.90137
-39.5497	274.175	5.96973
-39.5448	276.129	6.03809
-39.5378	274.309	6.10645
-39.5313	279.408	6.1748
-39.5271	283.573	6.24316
-39.5208	283.327	6.31152
-39.5161	283.906	6.37988
-39.5098	288.623	6.44824
-39.50367	292.4072	6.5166
-39.4973	298.96	6.58496
-39.4922	304.1601	6.65332
-39.4873	306.806	6.72168
-39.4803	308.201	6.79004
-39.4756	312.3186	6.8584
-39.4685	315.445	6.92676
-39.4649	313.729	6.99512
-39.4587	314.446	7.06348
-39.4541	317.925	7.13184
-39.4465	322.869	7.2002
-39.4413	328.115	7.26855
-39.4352	332.509	7.33691
-39.4291	334.001	7.40527
-39.4248	338.188	7.47363
-39.4183	343.678	7.54199
-39.4118	343.497	7.61035
-39.408	344.765	7.67871
-39.4007	346.311	7.74707
-39.3947	347.071	7.81543
-39.3894	351.467	7.88379
-39.3846	355.378	7.95215
-39.3797	359.5351	8.02051
-39.373	362.593	8.08887
-39.3667	367.142	8.15723
-39.3612	372.552	8.22559
-39.3562	373.471	8.29395
-39.3508	375.595	8.3623
-39.3434	375.349	8.43066
-39.3387	375.752	8.49902
-39.3336	377.961	8.56738
-39.3278	383.172	8.63574
-39.32177	385.296	8.7041
-39.3157	386.927	8.77246
-39.3101	393.057	8.84082
-39.3045	400.372	8.90918
-39.29866	398.96	8.97754
-39.2929	401.107	9.0459
-39.2858	402.578	9.11426
-39.2816	400.855	9.18262
-39.2761	403.773	9.25098
-39.2699	407.915	9.31934
-39.2647	408.1412	9.3877
-39.2579	410.7507	9.45605
-39.2533	416.567	9.52441
-39.248	421.658	9.59277
-39.2422	422.312	9.66113
-39.2366	424.51	9.72949
-39.2311	426.284	9.79785
-39.2247	423.65	9.86621
-39.2186	426.827	9.93457
-39.2138	429.416	10.00293
-39.2075	427.472	10.0713
-39.2022	428.633	10.1396
-39.1963	434.188	10.208
-39.1909	438.867	10.2764
-39.1853	438.901	10.3447
-39.1802	443.002	10.4131
-39.1735	444.583	10.4814
-39.1673	442.459	10.5498
-39.1623	443.022	10.6182
-39.1563	444.779	10.6865
-39.1508	441.63	10.7549
-39.1451	440.674	10.8232
-39.1392	447.202	10.8916
-39.1345	451.417	10.96
-39.1277	449.036	11.02832
-39.1225	453.694	11.09668
-39.116	454.22	11.165
-39.1103	454.146	11.2334
-39.1054	453.223	11.3018
-39.099	451.737	11.3701
-39.0923	447.4996	11.4385
-39.0882	447.63	11.5068
-39.0825	452.273	11.5752
-39.0773	452.595	11.6436
-39.0715	455.683	11.7119
-39.065	457.905	11.7803
-39.0597	457.628	11.8486
-39.0536	457.5896	11.917
-39.0474	458.163	11.9854
-39.0429	455.1687	12.0537
-39.0358	448.566	12.12207
-39.0315	448.082	12.19043
-39.0255	451.324	12.2588
-39.0198	451.0686	12.3271
-39.0133	451.1	12.3955
-39.0082	454.974	12.4639
-39.0031	456.265	12.5322
-38.9974	455.969	12.6006
-38.9921	455.7999	12.6689
-38.9855	453.46	12.7373
-38.98082	447.6647	12.8057
-38.975	445.984	12.874
-38.9683	448.412	12.9424
-38.9628	446.668	13.0107
-38.9568	446.465	13.0791
-38.9523	449.164	13.1475
-38.9456	450.474	13.21582
-38.9395	452	13.28418
-38.9348	452.429	13.3525
-38.929	449.111	13.4209
-38.9219	445.967	13.4893
-38.9174	444.706	13.5576
-38.9119	445.155	13.626
-38.9066	440.654	13.6943
-38.90094	441.934	13.7627
-38.8936	443.958	13.8311
-38.8888	445.468	13.8994
-38.8841	447.276	13.9678
-38.8779	449.38	14.0361
-38.8711	443.592	14.1045
-38.8653	440.993	14.1729
-38.8601	443.2132	14.2412
-38.8552	439.9408	14.30957
-38.8492	436.374	14.37793
-38.8441	438.311	14.4463
-38.8373	438.2	14.5146
-38.8319	441.83	14.583
-38.8266	442.546	14.6514
-38.8212	443.833	14.7197
-38.814	440.1246	14.7881
-38.8087	440.75	14.8564
-38.8034	440.009	14.9248
-38.7985	436.724	14.9932
-38.792	437.022	15.0615
-38.7867	434.888	15.1299
-38.7805	433.277	15.1982
-38.775	437.6355	15.2666
-38.7691	440.18	15.335
-38.7646	439.565	15.40332
-38.7575	438.534	15.47168
-38.7521	440.675	15.54
-38.7471	439.639	15.6084
-38.74049	435.795	15.6768
-38.7348	435.057	15.7451
-38.73119	433.283	15.8135
-38.7239	430.518	15.8818
-38.7181	433.868	15.9502
-38.7125	437.23	16.0186
-38.7059	433.192	16.0869
-38.7009	436.368	16.1553
-38.6959	440.82	16.2236
-38.6905	439.725	16.292
-38.6834	435.36	16.3604
-38.678	434.702	16.4287
-38.673	432.021	16.49707
-38.6673	429.418	16.56543
-38.6611	432.937	16.6338
-38.6547	434.805	16.7021
-38.6497	431.2	16.7705
-38.6428	433.189	16.8389
-38.6379	439.652	16.9072
-38.6325	437.671	16.9756
-38.627	432.676	17.0439
-38.6208	436.463	17.1123
-38.6159	432.753	17.1807
-38.6093	430.585	17.249
-38.60416	431.368	17.3174
-38.5976	431.462	17.3857
-38.5925	428.9166	17.4541
-38.5867	429.887	17.5225
-38.5803	437.8353	17.59082
-38.5751	435.776	17.65918
-38.5696	434.977	17.7275
-38.5646	436.99	17.7959
-38.558	432.353	17.8643
-38.5526	429.807	17.9326
-38.5465	431.185	18.001
-38.5422	430.035	18.0693
-38.5356	426.099	18.1377
-38.5298	429.9	18.2061
-38.5243	435.975	18.2744
-38.5183	435.307	18.3428
-38.5121	433.804	18.4111
-38.5072	436.046	18.4795
-38.50174	434.39	18.5479
-38.49572	431.153	18.6162
-38.4903	430.556	18.68457
-38.4845	428.687	18.75293
-38.4792	425.414	18.8213
-38.4747	429.046	18.8896
-38.4675	432.077	18.958
-38.4614	432.747	19.0264
-38.4562	432.844	19.0947
-38.4496	436.307	19.1631
-38.4449	434.06	19.2314
-38.4386	433.026	19.2998
-38.4334	432.649	19.3682
-38.42823	427.728	19.4365
-38.4213	424.943	19.5049
-38.4159	428.227	19.5732
-38.4104	431.177	19.6416
-38.4047	430.849	19.71
-38.3994	432.389	19.77832
-38.3926	434.726	19.84668
-38.3879	434.002	19.915
-38.3809	433.567	19.9834
-38.3797	426.781	20.0127

Data Header:			0.254_solid_dimension_typeiv_090_r0			Time:	26.731	s	4/14/2019 1:49:48 AM
Data Acquisition:	Timed
Station Name:	ft40.cfg
Test File Name:	monotonic_0.2540_typeiv_solid_090_dimension.tst
Displacement	Force	Running Time
mm	N	s
-38.3786	430.564	20.0225
-38.3774	431.259	20.0518
-38.3736	427.983	20.0811
-38.3703	430.275	20.1104
-38.3685	427.257	20.1396
-38.3663	433.5593	20.1689
-38.3646	426.855	20.1982
-38.362	432.0603	20.2275
-38.3587	426.922	20.2568
-38.357	431.959	20.2861
-38.3538	425.658	20.31543
-38.3504	433.191	20.3447
-38.3492	429.042	20.374
-38.34705	428.6077	20.40332
-38.3444	426.886	20.4326
-38.3412	430.09	20.4619
-38.3397	430.3	20.4912
-38.33683	425.584	20.5205
-38.3352	433.436	20.5498
-38.33176	428.38	20.5791
-38.3304	432.821	20.6084
-38.3278	423.606	20.6377
-38.3254	432.763	20.667
-38.3227	424.512	20.6963
-38.3194	432.018	20.7256
-38.3189	422.537	20.7549
-38.3159	432.925	20.78418
-38.3133	423.588	20.8135
-38.3105	428.928	20.8428
-38.3073	423.3	20.87207
-38.3068	430.2261	20.9014
-38.3035	426.3428	20.9307
-38.3009	427.167	20.96
-38.2978	428.1152	20.9893
-38.2967	427.1	21.0186
-38.2934	427.121	21.0479
-38.2908	423.453	21.0771
-38.289	432.181	21.1064
-38.2863	422.416	21.1357
-38.2837	432.715	21.165
-38.281	423.535	21.1943
-38.278	432.078	21.2236
-38.2759	421.577	21.25293
-38.2742	431.138	21.2822
-38.27264	425.432	21.3115
-38.2679	428.502	21.34082
-38.266	421.364	21.3701
-38.2633	426.234	21.3994
-38.2612	426.319	21.4287
-38.25922	425.465	21.458
-38.2572	424.784	21.4873
-38.2543	424.012	21.5166
-38.2522	427.597	21.5459
-38.2492	420.938	21.5752
-38.2461	425.813	21.6045
-38.2457	423.237	21.6338
-38.2419	428.394	21.6631
-38.2396	420.233	21.6924
-38.2372	424.71	21.72168
-38.2347	421.203	21.751
-38.2329	424.824	21.7803
-38.2297	421.113	21.80957
-38.2268	423.804	21.8389
-38.2248	422.4	21.8682
-38.2218	423.397	21.8975
-38.2204	421.371	21.9268
-38.2174	421.3623	21.9561
-38.216	423.588	21.9854
-38.2129	420.616	22.0146
-38.2092	423.686	22.0439
-38.2069	418.094	22.0732
-38.2058	422.001	22.1025
-38.2034	414.861	22.1318
-38.2007	421.075	22.1611
-38.198	415.887	22.19043
-38.196	418.065	22.2197
-38.1929	416.018	22.249
-38.1906	418.937	22.27832
-38.1876	413.984	22.3076
-38.1865	410.704	22.3369
-38.1833	414.994	22.3662
-38.1813	410.025	22.3955
-38.1787	409.014	22.4248
-38.1758	396.384	22.4541
-38.17	-41.3575	22.4834
-38.1691	-53.0851	22.5127
-38.1682	-38.7975	22.542
-38.166	-48.2778	22.5713
-38.1624	-37.2868	22.6006
-38.1624	-47.09457	22.6299
-38.1582	-40.542	22.65918
-38.1557	-48.58622	22.6885
-38.15374	-40.5719	22.7178
-38.1507	-45.7156	22.74707
-38.1483	-42.2246	22.7764
-38.146	-43.542	22.8057
-38.1434	-42.04171	22.835
-38.1411	-44.5282	22.8643
-38.1388	-47.0421	22.8936
-38.1366	-40.518	22.9229
-38.1339	-45.8327	22.9521
-38.1319	-39.06044	22.9814
-38.1285	-46.1595	23.0107
-38.1264	-40.1071	23.04
-38.1251	-49.3773	23.0693
-38.1219	-40.3395	23.0986
-38.1198	-45.13	23.12793
-38.1175	-38.6816	23.1572
-38.1146	-47.6867	23.1865
-38.1121	-40.44759	23.21582
-38.1102	-44.889	23.2451
-38.1076	-44.7141	23.2744
-38.1045	-44.8822	23.3037
-38.1026	-42.0808	23.333
-38.0999	-41.8776	23.3623
-38.0974	-47.0001	23.3916
-38.096	-44.8999	23.4209
-38.092	-45.0806	23.4502
-38.0907	-39.5082	23.4795
-38.0875	-46.178	23.5088
-38.0851	-40.6928	23.5381
-38.0829	-43.7316	23.5674
-38.0802	-41.3938	23.59668
-38.0787	-47.9028	23.626
-38.075	-41.2325	23.6553
-38.0738	-45.034	23.68457
-38.0703	-42.6865	23.7139
-38.06794	-44.5481	23.7432
-38.0665	-43.5675	23.7725
-38.0629	-42.6095	23.8018
-38.0612	-44.9053	23.8311
-38.058	-42.4254	23.8604
-38.0549	-43.2832	23.8896
-38.055	-40.0561	23.9189
-38.0513	-45.9262	23.9482
-38.0487	-40.2084	23.9775
-38.0457	-47.0114	24.0068
-38.04417	-41.2358	24.0361
-38.04203	-46.3112	24.06543
-38.0391	-38.6096	24.0947
-38.036	-44.131	24.124
-38.0346	-44.8927	24.15332
-38.0321	-43.7066	24.1826
-38.0301	-42.5576	24.2119
-38.0265	-41.9418	24.2412
-38.0253	-46.448	24.2705
-38.02079	-41.1087	24.2998
-38.0208	-46.2704	24.3291
-38.0163	-43.20787	24.3584
-38.0145	-47.3266	24.3877
-38.0127	-37.5856	24.417
-38.0103	-47.0689	24.4463
-38.0069	-41.7021	24.4756
-38.0047	-46.604	24.5049
-38.0026	-40.014	24.53418
-38.0002	-47.1973	24.5635
-37.9985	-42.1905	24.5928
-37.995	-45.0308	24.62207
-37.9921	-41.7173	24.6514
-37.9915	-43.9462	24.6807
-37.9879	-43.6104	24.71
-37.9852	-43.0461	24.7393
-37.98296	-43.412	24.7686
-37.9805	-40.4776	24.7979
-37.9789	-45.5893	24.8271
-37.9743	-39.5089	24.8564
-37.9741	-48.7877	24.8857
-37.9702	-40.1476	24.915
-37.9685	-46.8916	24.9443
-37.9654	-40.1383	24.9736
-37.9636	-47.5613	25.00293
-37.9619	-39.65	25.0322
-37.9597	-45.2764	25.0615
-37.9558	-41.2413	25.09082
-37.9536	-46.9734	25.1201
-37.9516	-40.605	25.1494
-37.9497	-42.1758	25.1787
-37.9464	-45.5307	25.208
-37.9436	-44.5649	25.2373
-37.94244	-44.2224	25.2666
-37.939	-41.6374	25.2959
-37.9368	-46.9188	25.3252
-37.9339	-41.0985	25.3545
-37.9313	-45.3642	25.3838
-37.9291	-41.5416	25.4131
-37.9262	-48.9776	25.4424
-37.9247	-40.8393	25.47168
-37.922	-44.6979	25.501
-37.9197	-41.257	25.5303
-37.9169	-46.9744	25.55957
-37.9151	-40.8252	25.5889
-37.91161	-45.254	25.6182
-37.9094	-44.5052	25.6475
-37.9072	-41.7869	25.6768
-37.9046	-42.4846	25.7061
-37.903	-42.3187	25.7354
-37.9005	-44.7329	25.7646
-37.8977	-40.2136	25.7939
-37.8947	-46.69083	25.8232
-37.8908	-44.1956	25.8525
-37.8905	-46.4112	25.8818
-37.8883	-39.1427	25.9111
-37.8848	-45.2298	25.94043
-37.8822	-44.3014	25.9697
-37.8809	-45.23	25.999
-37.8791	-42.851	26.02832
-37.8759	-44.6113	26.0576
-37.8717	-45.0532	26.0869
-37.8716	-42.4426	26.1162
-37.86813	-44.3537	26.1455
-37.866	-43.322	26.1748
-37.8647	-48.59552	26.2041
-37.8604	-40.7492	26.2334
-37.8587	-46.4979	26.2627
-37.856	-41.4056	26.292
-37.8526	-47.8015	26.3213
-37.851	-40.1856	26.3506
-37.8485	-48.9257	26.3799
-37.8467	-41.0836	26.40918
-37.84409	-46.72459	26.4385
-37.841	-40.5859	26.4678
-37.8383	-45.4251	26.49707
-37.8362	-43.1902	26.5264
-37.83358	-43.1676	26.5557
-37.8311	-44.6244	26.585
-37.82972	-41.8999	26.6143
-37.8265	-44.6859	26.6436
-37.8243	-39.9603	26.6729
-37.8212	-48.4864	26.7021
-37.8203	-41.4102	26.72168