File: data/processed_data_files/tensile/0.254_hd_uprint_typeiv_4545_r(4).dat
MTS793|BTW|ENU|1|2|.|/|:|1|0|0|A

Data Header:			0.254_hd_uprint_typeiv_4545_r0			Time:	20.0193	s	4/13/2019 7:19:43 PM
Data Acquisition:	Timed
Station Name:	ft40.cfg
Test File Name:	monotonic_0.2540_typeiv_hd_4545_uprint.tst
Displacement	Force	Running Time
mm	N	s
-40.0338	-5.3655	0.0224609
-40.034	-7.20866	0.0908203
-40.0291	-0.716239	0.15918
-40.023	5.40429	0.227539
-40.0171	7.11642	0.295898
-40.0118	5.60184	0.364258
-40.0055	7.36735	0.432617
-40.0005	13.5753	0.500977
-39.9945	14.0159	0.569336
-39.9892	18.2244	0.637695
-39.9823	24.2119	0.706055
-39.97702	26.6913	0.774414
-39.9699	33.08316	0.842773
-39.9661	39.6526	0.911133
-39.9603	41.4575	0.979492
-39.95303	40.7086	1.04785
-39.9499	44.8883	1.11621
-39.9426	48.8842	1.18457
-39.9377	48.5866	1.25293
-39.9319	51.567	1.32129
-39.9261	55.7933	1.38965
-39.9213	59.6351	1.45801
-39.9154	66.9912	1.52637
-39.9086	73.477	1.59473
-39.9042	73.8471	1.66309
-39.8983	75.4894	1.73145
-39.89193	80.3825	1.7998
-39.8858	84.8612	1.86816
-39.8808	83.911	1.93652
-39.8756	84.2999	2.00488
-39.86932	89.4219	2.07324
-39.8641	93.2899	2.1416
-39.8584	97.5224	2.20996
-39.8532	105.93	2.27832
-39.84597	107.83	2.34668
-39.8408	109.441	2.41504
-39.8351	114.758	2.4834
-39.8277	120.619	2.55176
-39.8232	118.057	2.62012
-39.8183	119.74	2.68848
-39.8116	125.467	2.75684
-39.8069	126.682	2.8252
-39.8015	131.714	2.89355
-39.7944	135.023	2.96191
-39.7887	137.778	3.03027
-39.7831	139.6694	3.09863
-39.778	148.725	3.16699
-39.7729	150.9	3.23535
-39.76651	150.5939	3.30371
-39.7605	154.339	3.37207
-39.7556	155.897	3.44043
-39.7498	158.612	3.50879
-39.7429	161.4425	3.57715
-39.7387	165.535	3.64551
-39.7322	169.2836	3.71387
-39.7274	173.2628	3.78223
-39.7204	180.5804	3.85059
-39.7152	184.368	3.91895
-39.7106	184.322	3.9873
-39.7031	188.151	4.05566
-39.6987	188.051	4.12402
-39.6929	191.777	4.19238
-39.6876	194.268	4.26074
-39.6822	197.248	4.3291
-39.6751	198.728	4.39746
-39.6704	204.8903	4.46582
-39.6646	212.434	4.53418
-39.6581	216.442	4.60254
-39.6537	218.844	4.6709
-39.6482	221.642	4.73926
-39.6413	219.964	4.80762
-39.6358	223.872	4.87598
-39.6301	227.434	4.94434
-39.6241	227.977	5.0127
-39.6178	230.4122	5.08105
-39.613	237.105	5.14941
-39.6075	242.809	5.21777
-39.5999	248.162	5.28613
-39.5952	249.866	5.35449
-39.5903	254.3981	5.42285
-39.5844	254.07	5.49121
-39.5792	257.315	5.55957
-39.5731	258.466	5.62793
-39.5669	258.022	5.69629
-39.561	258.958	5.76465
-39.55648	266.509	5.83301
-39.5504	272.4574	5.90137
-39.5449	275.966	5.96973
-39.5389	282.389	6.03809
-39.5335	285.686	6.10645
-39.5271	286.51	6.1748
-39.52161	288.527	6.24316
-39.516	290.7764	6.31152
-39.5105	288.042	6.37988
-39.5041	290.8	6.44824
-39.49894	296.398	6.5166
-39.493	302.257	6.58496
-39.4872	304.651	6.65332
-39.4825	311.012	6.72168
-39.476	315.465	6.79004
-39.4718	317.542	6.8584
-39.4643	321.107	6.92676
-39.45908	320.5083	6.99512
-39.4545	318.917	7.06348
-39.4487	319.374	7.13184
-39.4414	328.096	7.2002
-39.4365	329.709	7.26855
-39.4301	333.374	7.33691
-39.4241	339.297	7.40527
-39.4197	344.569	7.47363
-39.4125	347.795	7.54199
-39.4089	349.2486	7.61035
-39.4022	351.214	7.67871
-39.396	348.339	7.74707
-39.3911	348.676	7.81543
-39.3845	355.519	7.88379
-39.37883	357.601	7.95215
-39.3738	361.207	8.02051
-39.3674	367.457	8.08887
-39.362	371.3197	8.15723
-39.357	375.445	8.22559
-39.3517	378.645	8.29395
-39.3459	380.665	8.3623
-39.3394	376.637	8.43066
-39.3342	379.765	8.49902
-39.3293	382.63	8.56738
-39.3226	384.64	8.63574
-39.3164	387	8.7041
-39.31097	392.831	8.77246
-39.3051	396.232	8.84082
-39.3007	402.372	8.90918
-39.2941	406.117	8.97754
-39.28791	406.966	9.0459
-39.2834	406.319	9.11426
-39.2764	408.3833	9.18262
-39.2719	409.954	9.25098
-39.2652	409.075	9.31934
-39.2613	414.334	9.3877
-39.2541	417.894	9.45605
-39.248	421.457	9.52441
-39.2425	427.3544	9.59277
-39.2373	431.39	9.66113
-39.2319	431.912	9.72949
-39.2249	431.526	9.79785
-39.2196	435.705	9.86621
-39.2139	436.405	9.93457
-39.2088	435.034	10.00293
-39.2033	437.907	10.0713
-39.1963	439.655	10.1396
-39.1912	444.04	10.208
-39.1857	449.099	10.2764
-39.17968	453.777	10.3447
-39.1741	452.593	10.4131
-39.168	456.274	10.4814
-39.163	461.705	10.5498
-39.1571	460.334	10.6182
-39.15107	460.001	10.6865
-39.1453	463.165	10.7549
-39.1413	461.251	10.8232
-39.1345	465.524	10.8916
-39.1293	469.243	10.96
-39.1225	473.66	11.02832
-39.1172	473.315	11.09668
-39.1129	476.065	11.165
-39.106	482.746	11.2334
-39.1001	481.264	11.3018
-39.0943	482.731	11.3701
-39.0897	483.801	11.4385
-39.08252	482.888	11.5068
-39.0767	485.217	11.5752
-39.0723	489.165	11.6436
-39.0659	489.065	11.7119
-39.0606	491.166	11.7803
-39.05455	496.711	11.8486
-39.0492	502.578	11.917
-39.0435	499.255	11.9854
-39.03801	499.909	12.0537
-39.0319	499.92	12.12207
-39.026	498.874	12.19043
-39.0199	499.785	12.2588
-39.015	503.178	12.3271
-39.0088	504.1	12.3955
-39.003	502.932	12.4639
-38.9972	508.784	12.5322
-38.993	513.738	12.6006
-38.9865	513.28	12.6689
-38.9811	512.934	12.7373
-38.9749	513.091	12.8057
-38.96904	512.166	12.874
-38.9637	511.103	12.9424
-38.9584	512.273	13.0107
-38.95282	509.87	13.0791
-38.9459	510.612	13.1475
-38.94072	516.251	13.21582
-38.9351	517.516	13.28418
-38.9298	519.712	13.3525
-38.923	519.074	13.4209
-38.9182	518.009	13.4893
-38.91124	515.411	13.5576
-38.9063	514.69	13.626
-38.9007	514.336	13.6943
-38.8952	511.849	13.7627
-38.8886	513.477	13.8311
-38.88382	516.383	13.8994
-38.8778	517.752	13.9678
-38.8718	519.589	14.0361
-38.866	521.516	14.1045
-38.8601	519.128	14.1729
-38.8545	518.521	14.2412
-38.8487	515.597	14.30957
-38.8443	511.909	14.37793
-38.8368	508.887	14.4463
-38.8334	512.201	14.5146
-38.8267	514.42	14.583
-38.8216	513.989	14.6514
-38.8157	516.619	14.7197
-38.8086	520.44	14.7881
-38.8035	516.571	14.8564
-38.7984	518.621	14.9248
-38.7926	515.666	14.9932
-38.7875	510.849	15.0615
-38.7823	506.364	15.1299
-38.7758	508.432	15.1982
-38.77	510.844	15.2666
-38.7646	510.079	15.335
-38.7591	511.366	15.40332
-38.7533	514.013	15.47168
-38.7468	511.925	15.54
-38.7409	513.683	15.6084
-38.7347	514.124	15.6768
-38.72913	508.173	15.7451
-38.7235	503.935	15.8135
-38.7176	506.8298	15.8818
-38.7132	508.06	15.9502
-38.7075	505.786	16.0186
-38.7015	506.633	16.0869
-38.6954	510.755	16.1553
-38.689	511.193	16.2236
-38.6837	512.5871	16.292
-38.6787	510.824	16.3604
-38.6726	506.6626	16.4287
-38.6669	504.499	16.49707
-38.6613	505.427	16.56543
-38.655	504.392	16.6338
-38.6493	502.751	16.7021
-38.6446	504.4093	16.7705
-38.6385	506.98	16.8389
-38.6316	508.8551	16.9072
-38.6289	509.45	16.9756
-38.6213	510.03	17.0439
-38.6163	507.12	17.1123
-38.6102	503.993	17.1807
-38.6041	507.485	17.249
-38.5989	502.7836	17.3174
-38.59296	500.891	17.3857
-38.588	501.627	17.4541
-38.5816	502.335	17.5225
-38.5752	506.458	17.59082
-38.5698	507.676	17.65918
-38.5639	508.313	17.7275
-38.5585	505.4213	17.7959
-38.5531	504.705	17.8643
-38.5473	504.437	17.9326
-38.5416	500.977	18.001
-38.5359	498.688	18.0693
-38.5309	500.1554	18.1377
-38.525	499.84	18.2061
-38.5188	504.802	18.2744
-38.514	506.104	18.3428
-38.5079	504.6622	18.4111
-38.503	503.6019	18.4795
-38.497	505.227	18.5479
-38.4907	504.701	18.6162
-38.4846	500.634	18.68457
-38.4795	499.983	18.75293
-38.4738	498.552	18.8213
-38.4683	499.657	18.8896
-38.4627	501.749	18.958
-38.4571	502.79	19.0264
-38.4513	501.437	19.0947
-38.4453	502.591	19.1631
-38.4394	505.345	19.2314
-38.4349	504.24	19.2998
-38.4281	501.002	19.3682
-38.4215	499.728	19.4365
-38.4166	497.837	19.5049
-38.4101	496.8201	19.5732
-38.4048	498.962	19.6416
-38.3991	499.834	19.71
-38.3948	498.312	19.77832
-38.3886	500.252	19.84668
-38.3806	505.928	19.915
-38.37656	503.105	19.9834
-38.3737	494.221	20.0127

Data Header:			0.254_hd_uprint_typeiv_4545_r0			Time:	37.5559	s	4/13/2019 7:20:01 PM
Data Acquisition:	Timed
Station Name:	ft40.cfg
Test File Name:	monotonic_0.2540_typeiv_hd_4545_uprint.tst
Displacement	Force	Running Time
mm	N	s
-38.3731	498.68	20.0225
-38.3688	497.688	20.0811
-38.3629	497.33	20.1396
-38.3592	497.353	20.1982
-38.3548	498.361	20.2568
-38.3488	499.57	20.31543
-38.34462	499.487	20.374
-38.3389	499.779	20.4326
-38.3348	501.712	20.4912
-38.3291	502.109	20.5498
-38.325	503.054	20.6084
-38.3192	501.065	20.667
-38.3157	503.226	20.7256
-38.3101	499.908	20.78418
-38.3054	502.497	20.8428
-38.30027	496.6972	20.9014
-38.2952	497.466	20.96
-38.2902	494.92	21.0186
-38.2861	496.473	21.0771
-38.281	493.9675	21.1357
-38.2759	491.686	21.1943
-38.2709	496.243	21.25293
-38.2673	495.522	21.3115
-38.2618	496.971	21.3701
-38.2567	495.95	21.4287
-38.25111	502.158	21.4873
-38.2467	497.01	21.5459
-38.2404	501.098	21.6045
-38.237	499.505	21.6631
-38.2317	498.75	21.72168
-38.2272	497.307	21.7803
-38.2216	496.409	21.8389
-38.2176	495.635	21.8975
-38.2119	494.529	21.9561
-38.2074	494.299	22.0146
-38.2022	493.842	22.0732
-38.1978	494.075	22.1318
-38.1934	494.238	22.19043
-38.1885	494.893	22.249
-38.18259	496.223	22.3076
-38.1786	497.603	22.3662
-38.1732	500.6333	22.4248
-38.1689	497.522	22.4834
-38.1628	502.2937	22.542
-38.1584	498.616	22.6006
-38.1543	499.784	22.65918
-38.1496	496.323	22.7178
-38.1441	496.822	22.7764
-38.1397	492.991	22.835
-38.1343	493.009	22.8936
-38.1298	490.351	22.9521
-38.1241	490.29	23.0107
-38.1199	493.753	23.0693
-38.1134	490.784	23.12793
-38.1106	494.192	23.1865
-38.1062	493.062	23.2451
-38.0988	496.6846	23.3037
-38.0963	495.244	23.3623
-38.0903	498.976	23.4209
-38.0875	496.033	23.4795
-38.0812	496.436	23.5381
-38.0765	496.568	23.59668
-38.071	496.76	23.6553
-38.0655	492.481	23.7139
-38.06	493.834	23.7725
-38.0555	493.408	23.8311
-38.0515	491.701	23.8896
-38.0459	492.47	23.9482
-38.0409	491.3317	24.0068
-38.0369	492.716	24.06543
-38.0318	492.979	24.124
-38.0269	495.228	24.1826
-38.0215	497.8183	24.2412
-38.0159	497.178	24.2998
-38.0124	500.393	24.3584
-38.00703	497.284	24.417
-38.0028	496.663	24.4756
-37.9973	494.875	24.53418
-37.9927	496.017	24.5928
-37.9892	493.205	24.6514
-37.9833	491.157	24.71
-37.9793	491.186	24.7686
-37.9731	487.8656	24.8271
-37.9672	490.307	24.8857
-37.9639	488.1311	24.9443
-37.9582	491.329	25.00293
-37.954	487.64	25.0615
-37.9493	493.799	25.1201
-37.9441	491.0477	25.1787
-37.9394	495.349	25.2373
-37.9332	493.8674	25.2959
-37.9291	495.6846	25.3545
-37.924	493.387	25.4131
-37.9193	494.855	25.47168
-37.915	494.958	25.5303
-37.90844	492.051	25.5889
-37.9053	493.61	25.6475
-37.89938	490.263	25.7061
-37.8945	489.088	25.7646
-37.89043	490.302	25.8232
-37.8843	489.775	25.8818
-37.8801	490.131	25.94043
-37.8762	491.482	25.999
-37.87093	493.829	26.0576
-37.8666	492.608	26.1162
-37.8604	494.901	26.1748
-37.8565	494.749	26.2334
-37.8516	496.502	26.292
-37.8468	495.624	26.3506
-37.8408	494.804	26.40918
-37.8365	490.958	26.4678
-37.8317	491.127	26.5264
-37.8263	491.208	26.585
-37.82201	487.894	26.6436
-37.8168	488.083	26.7021
-37.8128	485.204	26.7607
-37.8079	488.647	26.8193
-37.8029	484.588	26.87793
-37.7966	490.087	26.9365
-37.7921	488.0831	26.9951
-37.7881	493.165	27.0537
-37.7831	492.991	27.1123
-37.7778	494.054	27.1709
-37.7735	492.658	27.2295
-37.76762	493.944	27.2881
-37.7631	493.936	27.34668
-37.7586	491.111	27.4053
-37.7522	491.969	27.4639
-37.7477	490.133	27.5225
-37.7432	489.51	27.5811
-37.7392	488.733	27.6396
-37.7332	487.873	27.6982
-37.7282	486.914	27.7568
-37.7244	487.04	27.81543
-37.7202	490.438	27.874
-37.7148	488.494	27.9326
-37.7096	492.594	27.9912
-37.7045	490.5386	28.0498
-37.7001	493.091	28.1084
-37.6953	493.902	28.167
-37.6905	493.6734	28.2256
-37.6851	491.056	28.28418
-37.68045	491.062	28.3428
-37.675	488.825	28.4014
-37.6711	485.5	28.46
-37.6653	486.727	28.5186
-37.6618	485.816	28.5771
-37.6569	486.872	28.6357
-37.65033	482.486	28.6943
-37.6473	487.044	28.75293
-37.6413	483.741	28.8115
-37.6356	488.725	28.8701
-37.6308	488.212	28.9287
-37.6264	491.334	28.9873
-37.6216	490.118	29.0459
-37.617	491.417	29.1045
-37.6112	492.077	29.1631
-37.6062	490.359	29.22168
-37.6019	491.654	29.2803
-37.5966	487.609	29.3389
-37.5917	487.654	29.3975
-37.5871	485.983	29.4561
-37.5827	485.474	29.5146
-37.5783	484.668	29.5732
-37.5731	484.205	29.6318
-37.5684	486.205	29.69043
-37.5638	484.609	29.749
-37.5586	487.54	29.8076
-37.552	488.0318	29.8662
-37.5479	490.0545	29.9248
-37.5437	489.944	29.9834
-37.5388	491.661	30.042
-37.5341	489.054	30.1006
-37.5284	487.564	30.15918
-37.5238	488.495	30.2178
-37.5196	485.637	30.2764
-37.514	485.157	30.335
-37.5101	482.284	30.3936
-37.5055	484.185	30.4521
-37.5001	480.093	30.5107
-37.4945	484.149	30.5693
-37.4903	479.917	30.62793
-37.48455	485.973	30.6865
-37.4797	484.951	30.7451
-37.4766	486.202	30.8037
-37.46965	485.604	30.8623
-37.465	487.66	30.9209
-37.4609	488.103	30.9795
-37.4563	487.69	31.0381
-37.4506	488.644	31.09668
-37.4455	487.7374	31.1553
-37.4407	487.211	31.2139
-37.4356	483.9025	31.2725
-37.43119	482.893	31.3311
-37.4267	481.385	31.3896
-37.42189	482.466	31.4482
-37.417	482.21	31.5068
-37.4118	479.7417	31.56543
-37.4067	484.792	31.624
-37.4015	483.326	31.6826
-37.39719	485.27	31.7412
-37.3922	485.838	31.7998
-37.3867	487.696	31.8584
-37.3817	485.952	31.917
-37.3772	486.138	31.9756
-37.3723	485.523	32.03418
-37.3671	483.176	32.0928
-37.36245	482.208	32.1514
-37.3582	479.621	32.21
-37.3535	478.7868	32.2686
-37.3476	475.603	32.3271
-37.3432	479.45	32.3857
-37.3378	475.178	32.4443
-37.333	477.747	32.50293
-37.3282	477.295	32.5615
-37.3239	478.979	32.6201
-37.3181	478.816	32.6787
-37.3139	480.665	32.7373
-37.3097	480.265	32.7959
-37.3036	479.396	32.8545
-37.29932	480.46	32.9131
-37.293	478.112	32.97168
-37.2894	476.37	33.0303
-37.2848	472.238	33.0889
-37.279	466.654	33.1475
-37.2714	-141.878	33.2061
-37.2701	-41.638	33.2646
-37.2646	-45.6116	33.3232
-37.2592	-45.7127	33.3818
-37.255	-43.8481	33.44043
-37.2507	-42.9231	33.499
-37.2454	-41.8229	33.5576
-37.242	-41.12326	33.6162
-37.2356	-38.53162	33.6748
-37.2317	-39.3862	33.7334
-37.2266	-39.8307	33.792
-37.221	-38.9255	33.8506
-37.2174	-42.0199	33.90918
-37.21191	-41.0211	33.9678
-37.2062	-45.1535	34.0264
-37.2015	-44.4176	34.085
-37.19611	-49.1845	34.1436
-37.1915	-44.9706	34.2021
-37.1863	-48.9096	34.2607
-37.18285	-46.4637	34.3193
-37.1766	-47.3068	34.37793
-37.171	-45.0464	34.4365
-37.1662	-44.5478	34.4951
-37.163	-41.0823	34.5537
-37.1575	-39.9858	34.6123
-37.15292	-39.7244	34.6709
-37.1484	-38.4737	34.7295
-37.14299	-39.27029	34.7881
-37.13903	-39.6274	34.84668
-37.1325	-40.94558	34.9053
-37.1283	-41.4833	34.9639
-37.1226	-44.7364	35.0225
-37.1192	-44.8558	35.0811
-37.1128	-43.5424	35.1396
-37.109	-46.2228	35.1982
-37.1043	-43.1555	35.2568
-37.0989	-46.1868	35.31543
-37.0945	-43.485	35.374
-37.0892	-41.9803	35.4326
-37.0844	-39.11187	35.4912
-37.0805	-41.3762	35.5498
-37.0738	-38.3454	35.6084
-37.0692	-39.3923	35.667
-37.0642	-41.073	35.7256
-37.0612	-42.4353	35.78418
-37.0555	-43.8774	35.8428
-37.0497	-42.7109	35.9014
-37.0444	-46.6206	35.96
-37.0405	-44.1806	36.0186
-37.0359	-46.5027	36.0771
-37.03	-45.2416	36.1357
-37.0248	-45.8962	36.1943
-37.0213	-44.0106	36.25293
-37.0156	-47.6387	36.3115
-37.0109	-43.1018	36.3701
-37.0068	-42.4327	36.4287
-37.0014	-41.0577	36.4873
-36.9969	-38.2931	36.5459
-36.9911	-37.8829	36.6045
-36.9859	-37.4906	36.6631
-36.98177	-40.5185	36.72168
-36.9769	-39.8831	36.7803
-36.9727	-42.83313	36.8389
-36.9675	-42.80352	36.8975
-36.9627	-44.0849	36.9561
-36.9576	-46.55249	37.0146
-36.9526	-43.9658	37.0732
-36.9475	-45.8286	37.1318
-36.9434	-43.9713	37.19043
-36.9377	-45.1456	37.249
-36.9328	-40.752	37.3076
-36.9281	-43.4047	37.3662
-36.9243	-41.1258	37.4248
-36.9179	-39.7457	37.4834
-36.9136	-40.9728	37.542