File: data/processed_data_files/tensile/0.254_hd_dimension_typeiv_090_r(7).dat
MTS793|BTW|ENU|1|2|.|/|:|1|0|0|A

Data Header:			0.254_hd_dimension_typeiv_090_r0			Time:	20.0183	s	4/14/2019 12:35:48 AM
Data Acquisition:	Timed
Station Name:	ft40.cfg
Test File Name:	monotonic_0.2540_typeiv_hd_090_dimension.tst
Displacement	Force	Running Time
mm	N	s
-40.0399	-158.896	0.0234375
-40.0405	-155.748	0.0917969
-40.03558	-153.078	0.160156
-40.029	-146.848	0.228516
-40.02441	-140.153	0.296875
-40.0178	-141.896	0.365234
-40.0126	-140.511	0.433594
-40.0062	-137.344	0.501953
-40	-133.557	0.5703125
-39.995	-134.845	0.638672
-39.9888	-129.043	0.707031
-39.9835	-123.65	0.775391
-39.9788	-117.7906	0.84375
-39.9731	-112.056	0.912109
-39.9664	-105.203	0.980469
-39.9615	-106.712	1.04883
-39.95454	-105.433	1.11719
-39.9496	-102.306	1.18555
-39.9448	-99.2961	1.25391
-39.9387	-98.53141	1.32227
-39.9337	-93.0192	1.390625
-39.9276	-89.768	1.45898
-39.921	-84.93261	1.52734
-39.9162	-77.5251	1.5957
-39.9085	-73.1236	1.66406
-39.9042	-70.50489	1.73242
-39.8985	-68.3107	1.80078
-39.89259	-65.6904	1.86914
-39.8872	-63.5827	1.9375
-39.8817	-61.5083	2.00586
-39.8748	-57.53672	2.07422
-39.8714	-56.7916	2.14258
-39.8646	-50.97	2.21094
-39.8577	-45.189	2.2793
-39.8526	-39.516	2.34766
-39.8473	-38.1238	2.41602
-39.84	-33.3347	2.484375
-39.8354	-30.1003	2.55273
-39.8311	-28.5151	2.62109
-39.8244	-28.8506	2.68945
-39.8188	-25.0421	2.75781
-39.8133	-22.8701	2.82617
-39.807	-18.0834	2.89453
-39.802	-12.2774	2.96289
-39.7966	-5.52338	3.03125
-39.7907	-5.32348	3.09961
-39.7837	-1.99446	3.16797
-39.7792	5.37447	3.23633
-39.7728	5.97833	3.30469
-39.7676	5.76609	3.37305
-39.7617	10.1326	3.44141
-39.7547	11.4755	3.50977
-39.7504	13.752	3.578125
-39.7447	20.8919	3.64648
-39.7395	26.0118	3.71484
-39.7326	26.4569	3.7832
-39.7284	31.9255	3.85156
-39.722	40.0048	3.91992
-39.7154	40.7313	3.98828
-39.7103	41.1848	4.05664
-39.7059	45.2426	4.125
-39.6978	45.3095	4.19336
-39.6931	48.924	4.26172
-39.6886	54.9512	4.33008
-39.682	58.8121	4.39844
-39.67543	59.5377	4.4668
-39.6714	64.4301	4.53516
-39.6656	73.9142	4.60352
-39.6592	75.9771	4.671875
-39.6528	75.2271	4.74023
-39.6483	79.9886	4.80859
-39.642	81.3926	4.87695
-39.6359	82.1333	4.94531
-39.63018	87.4312	5.01367
-39.6257	91.318	5.08203
-39.6189	93.381	5.15039
-39.61277	96.2051	5.21875
-39.60775	107.26	5.28711
-39.6028	108.974	5.35547
-39.5968	111.353	5.42383
-39.5913	114.358	5.49219
-39.5855	114.726	5.56055
-39.5797	118.481	5.62891
-39.5743	118.686	5.69727
-39.5673	123.804	5.765625
-39.5618	125.673	5.83398
-39.5566	130.2784	5.90234
-39.55122	138.392	5.9707
-39.5445	140.314	6.03906
-39.5395	142.147	6.10742
-39.5337	147.22	6.17578
-39.5289	148.241	6.24414
-39.5236	152.411	6.3125
-39.5177	154.318	6.38086
-39.5119	154.812	6.44922
-39.50489	155.762	6.51758
-39.5001	162.297	6.58594
-39.4943	167.095	6.6543
-39.4894	171.892	6.72266
-39.4834	176.722	6.79102
-39.4778	179.451	6.859375
-39.4715	181.8002	6.92773
-39.4651	186.181	6.99609
-39.4596	186.82	7.06445
-39.4539	187.1252	7.13281
-39.4481	188.188	7.20117
-39.4426	190.594	7.26953
-39.4366	198.062	7.33789
-39.4316	201.277	7.40625
-39.426	206.802	7.47461
-39.41983	214.015	7.54297
-39.4143	213.889	7.61133
-39.4094	217.536	7.67969
-39.4027	220.218	7.74805
-39.3976	218.523	7.81641
-39.3922	218.342	7.88477
-39.3864	223.164	7.953125
-39.381	229.078	8.02148
-39.3737	231.483	8.08984
-39.3696	237.9203	8.1582
-39.3643	243.662	8.22656
-39.3583	245.974	8.29492
-39.352	251.126	8.36328
-39.3461	253.6	8.43164
-39.3405	251.451	8.5
-39.3346	248.5312	8.56836
-39.3289	253.814	8.63672
-39.3251	259.284	8.70508
-39.3171	260.891	8.77344
-39.3119	266.7413	8.8418
-39.3062	273.055	8.91016
-39.301	275.9527	8.97852
-39.2953	279.829	9.046875
-39.2899	284	9.11523
-39.28392	283.584	9.18359
-39.2766	282.743	9.25195
-39.2723	285.589	9.32031
-39.2664	289.643	9.38867
-39.2609	289.455	9.45703
-39.2551	294.395	9.52539
-39.249	301.991	9.59375
-39.2437	304.866	9.66211
-39.2375	310.646	9.73047
-39.2326	314.153	9.79883
-39.2277	314.044	9.86719
-39.221	312.063	9.93555
-39.2153	315.019	10.0039
-39.2098	317.979	10.0723
-39.2048	317.018	10.1406
-39.198	323.407	10.209
-39.1935	328.403	10.2773
-39.1865	332.798	10.3457
-39.1812	337.185	10.4141
-39.1742	341.763	10.4824
-39.17	342.573	10.5508
-39.164	340.672	10.6191
-39.158	344.981	10.6875
-39.1529	346.219	10.7559
-39.1466	345.893	10.8242
-39.1416	349.277	10.8926
-39.1356	353.09	10.9609
-39.1291	360.151	11.0293
-39.1247	363.247	11.0977
-39.1197	368.829	11.166
-39.1123	368.703	11.2344
-39.1067	369.173	11.3027
-39.1008	371.868	11.3711
-39.0948	371.934	11.4395
-39.0904	372.218	11.5078
-39.0839	375.024	11.5762
-39.0781	375.748	11.6445
-39.0729	382.231	11.7129
-39.0674	389.0434	11.78125
-39.0612	392.288	11.8496
-39.0555	392.372	11.918
-39.0501	395.202	11.9863
-39.0449	397.898	12.0547
-39.0393	397.565	12.123
-39.033	397.66	12.1914
-39.027	399.597	12.2598
-39.0223	398.762	12.3281
-39.0155	403.938	12.3965
-39.0098	410.024	12.4648
-39.0044	413.137	12.5332
-38.9992	414.0079	12.6016
-38.9927	416.789	12.6699
-38.9868	421.895	12.7383
-38.9817	419.395	12.8066
-38.9762	418.275	12.875
-38.9699	421.694	12.9434
-38.96542	418.533	13.0117
-38.9584	422.436	13.0801
-38.9544	428.206	13.1484
-38.9477	429.507	13.2168
-38.94096	429.775	13.2852
-38.9353	434.991	13.3535
-38.9305	439.316	13.4219
-38.9251	436.815	13.4902
-38.919	436.055	13.5586
-38.913	437.589	13.627
-38.9068	436.519	13.6953
-38.90147	437.107	13.7637
-38.8968	441.4	13.832
-38.8908	441.728	13.9004
-38.8851	441.266	13.96875
-38.879	444.61	14.0371
-38.8732	450.053	14.1055
-38.8679	449.046	14.1738
-38.8613	447.995	14.2422
-38.8562	449.6908	14.3105
-38.8509	446.26	14.3789
-38.8442	447.2377	14.4473
-38.8393	448.9682	14.5156
-38.8332	450.332	14.584
-38.8268	447.704	14.6523
-38.8223	453.24	14.7207
-38.8166	458.299	14.7891
-38.811	455.57	14.8574
-38.8049	456.052	14.9258
-38.7995	453.883	14.9941
-38.7938	452.998	15.0625
-38.7889	452.499	15.1309
-38.78207	454.48	15.1992
-38.777	452.358	15.2676
-38.7703	450.207	15.3359
-38.7655	454.495	15.4043
-38.7595	458.846	15.4727
-38.7547	457.515	15.541
-38.7478	456.063	15.6094
-38.7425	455.313	15.6777
-38.7375	454.138	15.7461
-38.73069	452.899	15.8145
-38.7252	450.794	15.8828
-38.7198	450.34	15.9512
-38.7145	448.048	16.0195
-38.7081	450.459	16.0879
-38.7031	451.953	16.15625
-38.6969	453.746	16.2246
-38.6901	454.587	16.293
-38.6846	453.224	16.3613
-38.6802	451.641	16.4297
-38.6743	450.947	16.498
-38.6685	447.68	16.5664
-38.6625	444.006	16.6348
-38.65662	442.849	16.7031
-38.6509	446.369	16.7715
-38.6462	446.0614	16.8398
-38.6399	446.994	16.9082
-38.63493	449.062	16.9766
-38.6297	448.145	17.0449
-38.6224	448.2171	17.1133
-38.61602	448.152	17.1816
-38.6114	443.588	17.25
-38.6058	439.54	17.3184
-38.5994	438.632	17.3867
-38.5936	440.385	17.4551
-38.5891	441.002	17.5234
-38.5828	440.909	17.5918
-38.5764	444.295	17.6602
-38.5717	445.395	17.7285
-38.5658	446.041	17.7969
-38.5597	445.357	17.8652
-38.5542	441.696	17.9336
-38.5496	436.402	18.002
-38.5431	435.966	18.0703
-38.5381	438.499	18.1387
-38.5318	434.4	18.207
-38.5267	437.721	18.2754
-38.5213	439.267	18.34375
-38.5151	439.143	18.4121
-38.5083	441.313	18.4805
-38.50288	444.142	18.5488
-38.4971	440.126	18.6172
-38.49231	433.326	18.6855
-38.4859	435.391	18.7539
-38.48	435.979	18.8223
-38.4745	431.206	18.8906
-38.4687	433.608	18.959
-38.4623	436.614	19.0273
-38.4578	437.68	19.0957
-38.452	438.921	19.1641
-38.4462	442.854	19.2324
-38.44	437.978	19.3008
-38.4341	432.53	19.3691
-38.429	435.151	19.4375
-38.4239	434.373	19.5059
-38.4179	430.31	19.5742
-38.41161	430.685	19.6426
-38.4066	433.497	19.7109
-38.4009	434.494	19.7793
-38.3952	437.496	19.8477
-38.3902	439.625	19.916
-38.3835	439.1355	19.9844
-38.3808	432.378	20.0137

Data Header:			0.254_hd_dimension_typeiv_090_r0			Time:	34.4053	s	4/14/2019 12:36:02 AM
Data Acquisition:	Timed
Station Name:	ft40.cfg
Test File Name:	monotonic_0.2540_typeiv_hd_090_dimension.tst
Displacement	Force	Running Time
mm	N	s
-38.3803	432.985	20.0234
-38.3752	431.824	20.0723
-38.3723	435.379	20.1211
-38.3685	436.171	20.1699
-38.3638	430.986	20.21875
-38.3603	430.89	20.2676
-38.3563	434.772	20.3164
-38.3515	440.135	20.3652
-38.3484	438.061	20.4141
-38.3439	432.835	20.4629
-38.3399	430.276	20.5117
-38.3365	434.003	20.5605
-38.332	436.19	20.6094
-38.3274	432.632	20.6582
-38.322	429.431	20.707
-38.3197	431.935	20.7559
-38.3159	437.386	20.8047
-38.3098	434.179	20.8535
-38.3068	430.596	20.9023
-38.3032	428.1398	20.9512
-38.2993	433.585	21
-38.2942	440.588	21.0488
-38.2906	436.272	21.0977
-38.2878	431.988	21.1465
-38.2824	429.45	21.1953
-38.2791	433.297	21.2441
-38.275	435.617	21.293
-38.2714	430.226	21.3418
-38.2665	427.999	21.3906
-38.2624	431.693	21.4395
-38.2581	436.526	21.4883
-38.25462	433.579	21.5371
-38.2504	427.199	21.5859
-38.24501	428.819	21.6348
-38.2429	433.704	21.6836
-38.23748	438.498	21.7324
-38.234	434.322	21.78125
-38.2303	430.083	21.8301
-38.2255	430.234	21.8789
-38.2213	436.154	21.9277
-38.2178	434.745	21.9766
-38.2133	429.315	22.0254
-38.2101	426.8678	22.0742
-38.20549	432.432	22.123
-38.20179	436.223	22.1719
-38.1976	432.355	22.2207
-38.194	427.058	22.2695
-38.1889	427.6864	22.3184
-38.1856	434.026	22.3672
-38.1811	437.094	22.416
-38.177	432.262	22.4648
-38.1732	429.875	22.5137
-38.1683	431.083	22.5625
-38.1653	433.798	22.6113
-38.1605	434.123	22.6602
-38.1566	429.1748	22.709
-38.1519	427.11	22.7578
-38.1476	432.027	22.8066
-38.1455	436.489	22.8555
-38.1405	430.79	22.9043
-38.1357	425.196	22.9531
-38.1327	426.692	23.002
-38.1287	434.62	23.0508
-38.1238	435.32	23.0996
-38.1201	430.11	23.1484
-38.115	431.375	23.1973
-38.11137	432.832	23.2461
-38.1083	434.189	23.2949
-38.1042	431.569	23.34375
-38.0999	427.764	23.3926
-38.0961	427.348	23.4414
-38.0911	433.745	23.4902
-38.0862	434.476	23.5391
-38.0832	430.67	23.5879
-38.0796	424.437	23.6367
-38.0758	428.535	23.6855
-38.0713	433.866	23.7344
-38.067	431.552	23.7832
-38.0631	428.615	23.832
-38.0591	429.192	23.8809
-38.0541	434.676	23.9297
-38.0501	434.083	23.9785
-38.0459	431.0997	24.0273
-38.0431	427.41	24.0762
-38.0394	429.913	24.125
-38.0349	432.39	24.1738
-38.0313	432.029	24.2227
-38.0264	428.097	24.2715
-38.02298	424.61	24.3203
-38.01791	428.978	24.3691
-38.0143	431.2124	24.418
-38.0102	429.711	24.4668
-38.0056	428.587	24.5156
-38.0016	431.12	24.5645
-37.9976	433.579	24.6133
-37.9932	432.076	24.6621
-37.9901	427.082	24.7109
-37.9871	427.149	24.7598
-37.9813	429.889	24.8086
-37.9769	431.767	24.8574
-37.9734	429.859	24.90625
-37.9691	427.305	24.9551
-37.9645	427.488	25.0039
-37.9606	430.691	25.0527
-37.9576	429.742	25.1016
-37.9537	427.294	25.1504
-37.94886	428.354	25.1992
-37.945	432.216	25.248
-37.9398	434.2507	25.2969
-37.9361	429.42	25.3457
-37.9329	426.426	25.3945
-37.929	427.8421	25.4434
-37.9248	431.446	25.4922
-37.9211	432.447	25.541
-37.9173	427.2	25.5898
-37.9113	426.5676	25.6387
-37.9088	428.4277	25.6875
-37.9051	431.915	25.7363
-37.8996	428.2308	25.7852
-37.8955	426.174	25.834
-37.8917	425.661	25.8828
-37.8879	432.1	25.9316
-37.8838	432.53	25.9805
-37.8799	427.683	26.0293
-37.8753	423.8353	26.0781
-37.87104	428.754	26.127
-37.8679	432.516	26.1758
-37.863	430.185	26.2246
-37.8603	426.879	26.2734
-37.8561	426.24	26.3223
-37.8513	431.36	26.3711
-37.8469	430.061	26.4199
-37.8437	426.167	26.46875
-37.8385	422.067	26.5176
-37.8349	426.306	26.5664
-37.8309	433.78	26.6152
-37.8266	431.871	26.6641
-37.8231	426.8	26.7129
-37.8192	423.859	26.7617
-37.8137	429.192	26.8105
-37.81015	432.042	26.8594
-37.8071	428.138	26.9082
-37.8022	423.866	26.957
-37.7991	426.129	27.0059
-37.794	432.222	27.0547
-37.7908	432.403	27.1035
-37.78577	424.519	27.1523
-37.7816	421.405	27.2012
-37.7778	427.148	27.25
-37.7735	432.873	27.2988
-37.76902	431.171	27.3477
-37.7659	425.295	27.3965
-37.7622	423.182	27.4453
-37.7587	429.591	27.4941
-37.7555	432.597	27.543
-37.749	429.328	27.5918
-37.7454	423.22	27.6406
-37.7412	427.653	27.6895
-37.73801	431.719	27.7383
-37.7342	429.506	27.7871
-37.7299	423.209	27.8359
-37.7257	421.647	27.8848
-37.72007	427.211	27.9336
-37.7171	431.746	27.9824
-37.7128	429.007	28.03125
-37.7085	424.158	28.0801
-37.7054	425.828	28.1289
-37.7009	428.22	28.1777
-37.6961	430.957	28.2266
-37.6924	427.578	28.2754
-37.6882	423.59	28.3242
-37.6841	429.919	28.373
-37.6818	432.255	28.4219
-37.67606	430.805	28.4707
-37.6728	423.304	28.5195
-37.6684	421.597	28.5684
-37.6643	426.935	28.6172
-37.6602	430.68	28.666
-37.6555	426.652	28.7148
-37.6519	424.259	28.7637
-37.6485	426.074	28.8125
-37.6445	428.368	28.8613
-37.6407	428.942	28.9102
-37.6355	424.552	28.959
-37.6314	424.294	29.0078
-37.6274	427.865	29.0566
-37.6234	431.24	29.1055
-37.6194	428.767	29.1543
-37.6147	422.463	29.2031
-37.61113	421.4527	29.252
-37.6072	427.095	29.3008
-37.6037	429.9473	29.3496
-37.59848	424.6524	29.3984
-37.5952	422.1738	29.4473
-37.5914	426.2644	29.4961
-37.5871	427.671	29.5449
-37.582	424.2106	29.59375
-37.5785	421.125	29.6426
-37.5741	423.742	29.6914
-37.5703	426.27	29.7402
-37.5675	428.623	29.7891
-37.5624	425.632	29.8379
-37.5575	421.528	29.8867
-37.5541	423.332	29.9355
-37.5505	426.916	29.9844
-37.5458	426.595	30.0332
-37.5418	424.3	30.082
-37.53738	424.089	30.1309
-37.5347	427.304	30.1797
-37.5301	428.052	30.2285
-37.526	422.4664	30.2773
-37.5216	423.202	30.3262
-37.51812	423.586	30.375
-37.5136	427.044	30.4238
-37.50988	428.715	30.4727
-37.5054	424.4061	30.5215
-37.5016	424.061	30.5703
-37.497	424.997	30.6191
-37.4928	428.216	30.668
-37.4883	425.147	30.7168
-37.4855	421.995	30.7656
-37.4806	425.4	30.8145
-37.4766	427.793	30.8633
-37.4722	424.779	30.9121
-37.4695	419.707	30.9609
-37.4642	420.398	31.0098
-37.4606	423.361	31.0586
-37.4574	425.611	31.1074
-37.4528	423.638	31.15625
-37.4487	423.2236	31.2051
-37.44482	424.179	31.2539
-37.441	426.12	31.3027
-37.4371	424.229	31.3516
-37.4317	419.07	31.4004
-37.4286	420.435	31.4492
-37.4239	424.427	31.498
-37.4207	426.551	31.5469
-37.4165	423.766	31.5957
-37.4123	420.062	31.6445
-37.4083	420.622	31.6934
-37.4038	424.464	31.7422
-37.4	424.19	31.791
-37.3958	419.775	31.8398
-37.3926	419.4361	31.8887
-37.3884	421.884	31.9375
-37.3832	425.527	31.9863
-37.3791	422.587	32.0352
-37.3758	417.859	32.084
-37.3707	419.515	32.1328
-37.36718	424.898	32.1816
-37.3636	425.135	32.2305
-37.3594	420.582	32.2793
-37.3539	416.521	32.3281
-37.3499	417.749	32.377
-37.3462	423.629	32.4258
-37.3424	422.542	32.4746
-37.3389	415.539	32.5234
-37.3349	417.289	32.5723
-37.3302	421.88	32.6211
-37.3271	424.879	32.6699
-37.3216	417.775	32.71875
-37.3185	414.744	32.7676
-37.3144	416.284	32.8164
-37.3104	421.501	32.8652
-37.30566	420.724	32.9141
-37.30254	415.163	32.9629
-37.2982	410.416	33.0117
-37.2943	412.623	33.0605
-37.2893	415.538	33.1094
-37.2846	410.857	33.1582
-37.2817	386.694	33.207
-37.2755	-47.361	33.2559
-37.2731	-37.9935	33.3047
-37.2687	-36.6124	33.3535
-37.2644	-43.5487	33.4023
-37.2619	-47.1184	33.4512
-37.2574	-43.1653	33.5
-37.2529	-37.5332	33.5488
-37.2481	-37.5169	33.5977
-37.2453	-44.2971	33.6465
-37.2401	-44.5854	33.6953
-37.2368	-41.2578	33.7441
-37.2335	-39.968	33.793
-37.2279	-43.5868	33.8418
-37.224	-46.3533	33.8906
-37.2209	-43.9117	33.9395
-37.21656	-37.9153	33.9883
-37.21244	-37.5064	34.0371
-37.208	-44.4956	34.0859
-37.2039	-46.9244	34.1348
-37.1992	-42.3978	34.1836
-37.1958	-35.8961	34.2324
-37.1912	-40.3054	34.28125
-37.187	-44.7376	34.3301
-37.1837	-43.1807	34.3789
-37.1822	-42.5869	34.3984