File: data/processed_data_files/tensile/0.254_hd_dimension_typeiv_090_r(1).dat
MTS793|BTW|ENU|1|2|.|/|:|1|0|0|A

Data Header:			0.254_hd_dimension_typeiv_090_r0			Time:	20.0181	s	4/14/2019 12:26:09 AM
Data Acquisition:	Timed
Station Name:	ft40.cfg
Test File Name:	monotonic_0.2540_typeiv_hd_090_dimension.tst
Displacement	Force	Running Time
mm	N	s
-40.0413	-194.4019	0.0224609
-40.0402	-197.269	0.0908203
-40.0353	-194.453	0.15918
-40.02972	-188.479	0.227539
-40.0243	-187.476	0.295898
-40.0176	-185.554	0.364258
-40.0129	-181.858	0.432617
-40.00597	-177.536	0.500977
-40.0023	-170.416	0.569336
-39.9955	-165.949	0.637695
-39.9898	-163.3654	0.706055
-39.9842	-159.6902	0.774414
-39.9777	-156.845	0.842773
-39.9737	-153.0065	0.911133
-39.96674	-151.85	0.979492
-39.9609	-150.015	1.04785
-39.956	-147.71	1.11621
-39.95023	-143.423	1.18457
-39.9436	-136.885	1.25293
-39.9385	-132.921	1.32129
-39.9319	-130.053	1.38965
-39.926	-126.967	1.45801
-39.9224	-120.611	1.52637
-39.9154	-118.227	1.59473
-39.9101	-116.3694	1.66309
-39.9039	-113.194	1.73145
-39.9	-114.537	1.7998
-39.8934	-108.626	1.86816
-39.8861	-103.114	1.93652
-39.88113	-101.413	2.00488
-39.8765	-99.56015	2.07324
-39.8699	-92.0746	2.1416
-39.8648	-84.3506	2.20996
-39.8592	-84.0876	2.27832
-39.8533	-80.8647	2.34668
-39.8478	-79.045	2.41504
-39.8415	-78.1729	2.4834
-39.8361	-75.7125	2.55176
-39.8299	-71.0799	2.62012
-39.8255	-70.3313	2.68848
-39.8181	-64.8662	2.75684
-39.8128	-58.0481	2.8252
-39.8074	-52.9198	2.89355
-39.8016	-51.7928	2.96191
-39.7963	-44.9554	3.03027
-39.7894	-45.4453	3.09863
-39.7858	-44.3589	3.16699
-39.7793	-39.9128	3.23535
-39.7734	-37.30999	3.30371
-39.7662	-38.6505	3.37207
-39.761	-33.9662	3.44043
-39.7568	-23.937	3.50879
-39.7502	-20.8402	3.57715
-39.7452	-17.2267	3.64551
-39.7392	-11.9701	3.71387
-39.7335	-9.87178	3.78223
-39.7273	-9.32096	3.85059
-39.722	-5.08423	3.91895
-39.7161	-5.14662	3.9873
-39.71	-4.84505	4.05566
-39.7055	-0.546314	4.12402
-39.6985	8.984314	4.19238
-39.6929	10.639	4.26074
-39.688	15.0137	4.3291
-39.6817	22.7624	4.39746
-39.6774	23.459	4.46582
-39.6717	26.1337	4.53418
-39.66515	29.7619	4.60254
-39.6589	28.9917	4.6709
-39.6539	27.5633	4.73926
-39.6484	35.26572	4.80762
-39.6427	40.5606	4.87598
-39.6361	43.287	4.94434
-39.63028	49.9327	5.0127
-39.6256	55.0418	5.08105
-39.6198	58.11702	5.14941
-39.6138	59.2692	5.21777
-39.6079	62.6429	5.28613
-39.6019	62.15765	5.35449
-39.5979	61.2345	5.42285
-39.591	68.41333	5.49121
-39.5857	70.6627	5.55957
-39.58	73.3778	5.62793
-39.5734	79.8154	5.69629
-39.5685	85.1504	5.76465
-39.5627	88.5063	5.83301
-39.5566	93.5814	5.90137
-39.5507	95.845	5.96973
-39.5459	95.5634	6.03809
-39.5396	96.4573	6.10645
-39.53434	102.342	6.1748
-39.52845	102.647	6.24316
-39.522	105.798	6.31152
-39.5173	112.293	6.37988
-39.5116	116.707	6.44824
-39.5061	121.241	6.5166
-39.4996	127.503	6.58496
-39.49411	129.029	6.65332
-39.4876	126.597	6.72168
-39.4826	130.259	6.79004
-39.478	133.0881	6.8584
-39.472	133.526	6.92676
-39.465	138.16	6.99512
-39.4617	141.8501	7.06348
-39.4544	147.693	7.13184
-39.4474	151.762	7.2002
-39.4427	156.31	7.26855
-39.437	157.908	7.33691
-39.4317	160.187	7.40527
-39.4264	163.337	7.47363
-39.4219	165.954	7.54199
-39.4151	168.221	7.61035
-39.4085	168.05	7.67871
-39.4033	170.94	7.74707
-39.3971	178.269	7.81543
-39.39246	184.427	7.88379
-39.3869	187.496	7.95215
-39.3805	188.463	8.02051
-39.3749	193.558	8.08887
-39.3691	197.837	8.15723
-39.3635	198.218	8.22559
-39.3584	198.548	8.29395
-39.3519	199.793	8.3623
-39.3461	201.228	8.43066
-39.3404	209.151	8.49902
-39.3358	212.398	8.56738
-39.3294	215.323	8.63574
-39.32457	218.161	8.7041
-39.3181	225.465	8.77246
-39.3123	226.771	8.84082
-39.306	227.515	8.90918
-39.2999	232.9	8.97754
-39.29562	230.3763	9.0459
-39.29	232.155	9.11426
-39.283	239.281	9.18262
-39.2773	242.429	9.25098
-39.2731	241.896	9.31934
-39.2667	247.298	9.3877
-39.2612	256.163	9.45605
-39.2558	257.125	9.52441
-39.2508	260.023	9.59277
-39.2441	261.9754	9.66113
-39.2391	262.641	9.72949
-39.2329	264.464	9.79785
-39.2269	267.946	9.86621
-39.2197	268.171	9.93457
-39.216	271.006	10.00293
-39.21014	277.022	10.0713
-39.2037	285.343	10.1396
-39.1979	286.601	10.208
-39.1931	290.39	10.2764
-39.1888	294.69	10.3447
-39.1815	291.409	10.4131
-39.1744	295.009	10.4814
-39.1703	298.422	10.5498
-39.164	298.244	10.6182
-39.15786	298.98	10.6865
-39.1525	307.531	10.7549
-39.148	312.488	10.8232
-39.1415	314.334	10.8916
-39.1351	319.898	10.96
-39.1297	322.3111	11.02832
-39.12471	322.944	11.09668
-39.1176	324.528	11.165
-39.1131	328.382	11.2334
-39.1066	324.95	11.3018
-39.1014	325.491	11.3701
-39.0954	334.482	11.4385
-39.09	337.654	11.5068
-39.0842	340.937	11.5752
-39.07888	346.376	11.6436
-39.0734	349.107	11.7119
-39.0683	351.221	11.7803
-39.0618	353.042	11.8486
-39.0561	353.141	11.917
-39.0498	351.185	11.9854
-39.0449	352.6	12.0537
-39.0383	358.975	12.12207
-39.0325	360.228	12.19043
-39.0267	365.887	12.2588
-39.0222	371.486	12.3271
-39.0146	373.255	12.3955
-39.0098	375.3	12.4639
-39.0047	379.639	12.5322
-38.9986	375.909	12.6006
-38.9922	373.981	12.6689
-38.9875	378.156	12.7373
-38.9815	381.388	12.8057
-38.9759	382.922	12.874
-38.9701	390.235	12.9424
-38.9651	391.884	13.0107
-38.95908	396.664	13.0791
-38.9525	398.598	13.1475
-38.9476	402.632	13.21582
-38.9417	400.504	13.28418
-38.937	398.931	13.3525
-38.931	404.064	13.4209
-38.9251	403.221	13.4893
-38.9183	403.396	13.5576
-38.9137	407.981	13.626
-38.9081	410.421	13.6943
-38.9024	416.067	13.7627
-38.8963	420.595	13.8311
-38.891	420.5679	13.8994
-38.8849	419.142	13.9678
-38.8794	418.999	14.0361
-38.875	421.982	14.1045
-38.8686	420.528	14.1729
-38.8619	422.195	14.2412
-38.857	422.234	14.30957
-38.85017	425.889	14.37793
-38.8442	430.8118	14.4463
-38.839	434.105	14.5146
-38.8341	433.377	14.583
-38.8278	434.04	14.6514
-38.82291	435.912	14.7197
-38.8172	435.821	14.7881
-38.8109	434.497	14.8564
-38.8055	433.84	14.9248
-38.7996	433.932	14.9932
-38.7928	434.919	15.0615
-38.7878	438.949	15.1299
-38.7822	441.033	15.1982
-38.7767	439.884	15.2666
-38.7699	442.211	15.335
-38.7659	446.046	15.40332
-38.7598	443.148	15.47168
-38.7535	442.124	15.54
-38.7471	439.19	15.6084
-38.7427	438.706	15.6768
-38.7362	440.55	15.7451
-38.7311	442.789	15.8135
-38.7248	442.957	15.8818
-38.7194	441.378	15.9502
-38.7147	446.233	16.0186
-38.709	448.879	16.0869
-38.7025	445.89	16.1553
-38.697	445.918	16.2236
-38.6922	444.179	16.292
-38.6856	439.215	16.3604
-38.6788	440.505	16.4287
-38.6749	441.944	16.49707
-38.669	437.24	16.56543
-38.6626	439.797	16.6338
-38.656	446.578	16.7021
-38.6513	445.24	16.7705
-38.6457	442.606	16.8389
-38.6395	445.338	16.9072
-38.6343	441.685	16.9756
-38.6279	438.097	17.0439
-38.6227	437.714	17.1123
-38.6178	434.7688	17.1807
-38.6123	432.354	17.249
-38.6061	433.651	17.3174
-38.6005	441.091	17.3857
-38.595	438.708	17.4541
-38.5882	439.876	17.5225
-38.5819	439.789	17.59082
-38.5771	437.19	17.65918
-38.5722	435.2092	17.7275
-38.5654	433.89	17.7959
-38.5603	431.673	17.8643
-38.5547	427.712	17.9326
-38.5486	429.069	18.001
-38.543	433.544	18.0693
-38.5373	433.412	18.1377
-38.53191	435.076	18.2061
-38.5266	436.094	18.2744
-38.5202	434.65	18.3428
-38.5144	432.284	18.4111
-38.5087	430.958	18.4795
-38.5034	427.706	18.5479
-38.4972	423.67	18.6162
-38.492	426.828	18.68457
-38.48637	428.966	18.75293
-38.4801	428.285	18.8213
-38.4743	430.9729	18.8896
-38.4696	433.934	18.958
-38.4635	432.951	19.0264
-38.4571	431.913	19.0947
-38.4518	429.2099	19.1631
-38.4473	425.187	19.2314
-38.4403	421.762	19.2998
-38.4359	425.744	19.3682
-38.4292	426.529	19.4365
-38.4233	424.322	19.5049
-38.4181	430.075	19.5732
-38.4112	430.677	19.6416
-38.4072	430.189	19.71
-38.4002	429.726	19.77832
-38.3956	429.452	19.84668
-38.38995	424.2359	19.915
-38.3849	421.634	19.9834
-38.3814	429.932	20.0127

Data Header:			0.254_hd_dimension_typeiv_090_r0			Time:	36.0347	s	4/14/2019 12:26:25 AM
Data Acquisition:	Timed
Station Name:	ft40.cfg
Test File Name:	monotonic_0.2540_typeiv_hd_090_dimension.tst
Displacement	Force	Running Time
mm	N	s
-38.3804	431.092	20.0225
-38.3757	427.085	20.0811
-38.3699	429.905	20.1396
-38.3666	424.769	20.1982
-38.3611	424.631	20.2568
-38.3562	420.028	20.31543
-38.3508	424.222	20.374
-38.346	419.6868	20.4326
-38.3406	421.3187	20.4912
-38.336	422.111	20.5498
-38.3313	422.675	20.6084
-38.3273	425.975	20.667
-38.3216	426.77	20.7256
-38.3172	429.135	20.78418
-38.3129	427.654	20.8428
-38.307	429.844	20.9014
-38.3014	429.05	20.96
-38.2967	427.43	21.0186
-38.293	428.0369	21.0771
-38.2877	427.375	21.1357
-38.2822	424.025	21.1943
-38.2775	421.459	21.25293
-38.2731	422.658	21.3115
-38.2681	418.763	21.3701
-38.2628	420.595	21.4287
-38.25774	421.331	21.4873
-38.2531	420.603	21.5459
-38.2498	422.559	21.6045
-38.2431	423.551	21.6631
-38.2399	426.3678	21.72168
-38.23407	422.686	21.7803
-38.2284	427.358	21.8389
-38.2231	423.775	21.8975
-38.21986	425.823	21.9561
-38.2136	422.457	22.0146
-38.2096	423.982	22.0732
-38.204	419.309	22.1318
-38.1999	420.49	22.19043
-38.1945	420.585	22.249
-38.1897	418.85	22.3076
-38.18523	420.192	22.3662
-38.1801	420.779	22.4248
-38.1752	421.468	22.4834
-38.171	420.617	22.542
-38.1644	425.718	22.6006
-38.1603	425.127	22.65918
-38.1567	427.065	22.7178
-38.151	427.586	22.7764
-38.1468	424.607	22.835
-38.1407	425.319	22.8936
-38.1361	424.297	22.9521
-38.1307	425.128	23.0107
-38.1269	419.168	23.0693
-38.1213	419.053	23.12793
-38.1181	420.672	23.1865
-38.1109	416.962	23.2451
-38.1067	418.694	23.3037
-38.1019	416.769	23.3623
-38.0977	420.622	23.4209
-38.0922	418.2088	23.4795
-38.0875	424.502	23.5381
-38.0832	421.0625	23.59668
-38.0771	423.646	23.6553
-38.073	423.8847	23.7139
-38.0684	426.102	23.7725
-38.0631	422.485	23.8311
-38.0581	423.378	23.8896
-38.0521	421.335	23.9482
-38.0486	418.873	24.0068
-38.0442	420.442	24.06543
-38.0387	421.097	24.124
-38.0348	418.0806	24.1826
-38.0289	419.062	24.2412
-38.0229	420.813	24.2998
-38.019	420.121	24.3584
-38.0137	420.082	24.417
-38.00824	423.472	24.4756
-38.0043	423.88	24.53418
-37.9999	424.342	24.5928
-37.9951	424.186	24.6514
-37.9902	426.256	24.71
-37.985	423.0899	24.7686
-37.9803	423.711	24.8271
-37.9743	423.66	24.8857
-37.9701	418.591	24.9443
-37.966	419.641	25.00293
-37.9606	415.858	25.0615
-37.9565	418.8826	25.1201
-37.952	413.589	25.1787
-37.9459	420.719	25.2373
-37.9423	415.352	25.2959
-37.9355	422.026	25.3545
-37.931	417.889	25.4131
-37.92572	421.297	25.47168
-37.9218	421.286	25.5303
-37.9169	424.484	25.5889
-37.9113	423.445	25.6475
-37.9066	422.9556	25.7061
-37.9014	424.328	25.7646
-37.8967	422.578	25.8232
-37.8925	422.084	25.8818
-37.8874	419.296	25.94043
-37.883	419.751	25.999
-37.87878	416.489	26.0576
-37.8721	418.97	26.1162
-37.8669	419.054	26.1748
-37.8621	418.695	26.2334
-37.858	419.253	26.292
-37.8525	420.281	26.3506
-37.8479	422.448	26.40918
-37.8438	420.846	26.4678
-37.8391	424.81	26.5264
-37.8335	422.552	26.585
-37.82843	422.05	26.6436
-37.8244	423.5918	26.7021
-37.8186	419.993	26.7607
-37.8147	420.338	26.8193
-37.8099	414.826	26.87793
-37.80442	418.423	26.9365
-37.8004	412.138	26.9951
-37.795	418.985	27.0537
-37.7891	414.689	27.1123
-37.7859	419.084	27.1709
-37.7796	417.081	27.2295
-37.7751	422.01	27.2881
-37.7695	421.937	27.34668
-37.7656	422.454	27.4053
-37.76	425.556	27.4639
-37.7551	424.068	27.5225
-37.7508	424.011	27.5811
-37.7461	424.204	27.6396
-37.7404	423.276	27.6982
-37.736	419.074	27.7568
-37.7312	420.207	27.81543
-37.7257	419.118	27.874
-37.7204	414.934	27.9326
-37.716	416.595	27.9912
-37.7119	416.737	28.0498
-37.7061	417.871	28.1084
-37.702	418.2038	28.167
-37.69688	420.97	28.2256
-37.6908	422.45	28.28418
-37.6876	420.429	28.3428
-37.6819	425.625	28.4014
-37.6773	421.571	28.46
-37.6725	424.056	28.5186
-37.6671	421.281	28.5771
-37.6618	422.57	28.6357
-37.6565	415.263	28.6943
-37.6539	418.597	28.75293
-37.6474	414.626	28.8115
-37.6426	414.7269	28.8701
-37.6383	414.514	28.9287
-37.6326	416.379	28.9873
-37.6294	415.93	29.0459
-37.6245	418.5741	29.1045
-37.6178	420.755	29.1631
-37.6131	419.882	29.22168
-37.6088	424.545	29.2803
-37.6034	423.745	29.3389
-37.59985	423.031	29.3975
-37.5942	423.46	29.4561
-37.5894	422.5112	29.5146
-37.5834	420.628	29.5732
-37.5801	418.084	29.6318
-37.5756	418.487	29.69043
-37.5704	414.413	29.749
-37.5648	415.102	29.8076
-37.5609	415.437	29.8662
-37.556	416.72	29.9248
-37.5503	415.051	29.9834
-37.5452	415.786	30.042
-37.5407	420.485	30.1006
-37.5354	417.369	30.15918
-37.53	420.272	30.2178
-37.5267	419.577	30.2764
-37.5211	422.901	30.335
-37.5158	417.006	30.3936
-37.5116	421.474	30.4521
-37.5064	417.1662	30.5107
-37.502	416.383	30.5693
-37.4964	413.848	30.62793
-37.4908	414.224	30.6865
-37.4872	413.536	30.7451
-37.4829	414.957	30.8037
-37.4775	415.661	30.8623
-37.4722	414.104	30.9209
-37.4668	417.681	30.9795
-37.4629	418.9	31.0381
-37.4572	418.943	31.09668
-37.4527	421.345	31.1553
-37.448	419.9852	31.2139
-37.4439	423.211	31.2725
-37.4389	419.163	31.3311
-37.4347	422.004	31.3896
-37.4293	417.877	31.4482
-37.4243	416.452	31.5068
-37.4182	414.033	31.56543
-37.4139	412.854	31.624
-37.40897	411.87	31.6826
-37.4039	412.415	31.7412
-37.4002	415.247	31.7998
-37.39373	410.444	31.8584
-37.3892	415.278	31.917
-37.3846	414.1384	31.9756
-37.3802	417.744	32.03418
-37.3739	414.8728	32.0928
-37.36932	419.529	32.1514
-37.3651	415.243	32.21
-37.3592	417.606	32.2686
-37.3547	416.787	32.3271
-37.3496	415.0672	32.3857
-37.3446	412.864	32.4443
-37.3405	411.762	32.50293
-37.335	410.676	32.5615
-37.3307	407.551	32.6201
-37.32655	407.995	32.6787
-37.3212	405.868	32.7373
-37.3129	30.3653	32.7959
-37.31	-39.97332	32.8545
-37.3057	-37.0052	32.9131
-37.3009	-36.7252	32.97168
-37.2965	-37.95166	33.0303
-37.2913	-33.8485	33.0889
-37.2867	-35.783	33.1475
-37.28083	-38.9077	33.2061
-37.2772	-37.0636	33.2646
-37.2717	-38.6054	33.3232
-37.2668	-38.9912	33.3818
-37.2622	-42.3255	33.44043
-37.2574	-40.0717	33.499
-37.2516	-45.5573	33.5576
-37.24646	-40.93523	33.6162
-37.2427	-44.4097	33.6748
-37.2375	-37.8828	33.7334
-37.2329	-41.9411	33.792
-37.2285	-37.0861	33.8506
-37.2222	-38.2273	33.90918
-37.2176	-37.0959	33.9678
-37.2129	-35.6108	34.0264
-37.2083	-34.702	34.085
-37.2029	-36.2833	34.1436
-37.1982	-34.554	34.2021
-37.1931	-35.939	34.2607
-37.1896	-40.29	34.3193
-37.1837	-38.1663	34.37793
-37.1789	-39.23381	34.4365
-37.1748	-41.3402	34.4951
-37.1696	-41.3074	34.5537
-37.1647	-42.455	34.6123
-37.1603	-40.4167	34.6709
-37.1545	-39.5553	34.7295
-37.1491	-34.5265	34.7881
-37.1443	-38.0868	34.84668
-37.14	-37.915	34.9053
-37.1359	-34.74091	34.9639
-37.1308	-37.3657	35.0225
-37.1254	-35.784	35.0811
-37.1198	-38.4334	35.1396
-37.1149	-35.9586	35.1982
-37.1115	-43.076	35.2568
-37.1059	-38.2318	35.31543
-37.1006	-44.0344	35.374
-37.0966	-40.823	35.4326
-37.0908	-42.6897	35.4912
-37.086	-40.0314	35.5498
-37.0815	-42.2053	35.6084
-37.0762	-40.0857	35.667
-37.0728	-36.1507	35.7256
-37.0663	-35.66272	35.78418
-37.0617	-35.1208	35.8428
-37.0571	-34.4253	35.9014
-37.0531	-33.1663	35.96
-37.048	-36.0446	36.0186
-37.0465	-35.5074	36.02832