File: data/processed_data_files/tensile/0.254_hd_uprint_typeiv_090_r(2).dat
MTS793|BTW|ENU|1|2|.|/|:|1|0|0|A

Data Header:			0.254_hd_uprint_typeiv_090_r0			Time:	20.0176	s	4/13/2019 10:58:48 PM
Data Acquisition:	Timed
Station Name:	ft40.cfg
Test File Name:	monotonic_0.2540_typeiv_solid_4545_uprint.tst
Displacement	Force	Running Time
mm	N	s
-40.0423	-103.21	0.0229492
-40.0408	-99.9318	0.0913086
-40.0341	-100.765	0.159668
-40.0292	-98.6409	0.228027
-40.0232	-94.5351	0.296387
-40.0194	-95.2834	0.364746
-40.0117	-91.61805	0.433105
-40.0067	-84.7772	0.501465
-40.0012	-83.67382	0.569824
-39.99445	-80.798	0.638184
-39.9892	-70.1982	0.706543
-39.9835	-66.3049	0.774902
-39.9784	-65.7944	0.843262
-39.9733	-62.70705	0.911621
-39.9672	-61.9461	0.97998
-39.961	-60.0542	1.04834
-39.9549	-56.5353	1.1167
-39.9498	-53.8409	1.18506
-39.9435	-53.0681	1.253418
-39.9388	-48.8277	1.32178
-39.93327	-39.7526	1.39014
-39.9261	-35.6688	1.4585
-39.92	-32.9092	1.52686
-39.9146	-30.3147	1.59521
-39.9095	-29.0164	1.66357
-39.90435	-27.1202	1.73193
-39.8981	-24.76	1.800293
-39.8939	-22.3352	1.86865
-39.8881	-21.3895	1.93701
-39.8815	-16.39	2.00537
-39.8752	-8.69185	2.07373
-39.8702	-5.99577	2.14209
-39.8643	-2.2943	2.21045
-39.8595	2.24121	2.27881
-39.8525	5.51439	2.347168
-39.8479	8.73865	2.41553
-39.8418	9.69844	2.48389
-39.8364	7.83319	2.55225
-39.8308	11.0556	2.62061
-39.8235	17.1389	2.68896
-39.8185	19.8792	2.75732
-39.8132	26.5312	2.82568
-39.8067	29.6399	2.894043
-39.8017	35.9997	2.9624
-39.7961	41.1112	3.03076
-39.7901	44.5285	3.09912
-39.7835	41.9988	3.16748
-39.779	41.6478	3.23584
-39.7735	44.2266	3.3042
-39.7684	48.1105	3.37256
-39.76236	52.5073	3.440918
-39.756	58.6126	3.50928
-39.7504	63.0501	3.57764
-39.7454	67.5456	3.646
-39.7389	74.1503	3.71436
-39.7335	76.0906	3.78271
-39.7276	76.1044	3.85107
-39.7235	75.624	3.91943
-39.7167	78.1894	3.987793
-39.7107	79.9108	4.05615
-39.7041	81.9	4.12451
-39.6993	87.1956	4.19287
-39.6933	94.111	4.26123
-39.6884	97.32415	4.32959
-39.6826	103.241	4.39795
-39.6765	109.615	4.46631
-39.6706	107.952	4.534668
-39.6658	107.65	4.60303
-39.6592	111.896	4.67139
-39.6528	113.3262	4.73975
-39.6475	113.76	4.80811
-39.6424	120.178	4.87646
-39.6371	123.7422	4.94482
-39.6305	128.193	5.01318
-39.6253	135.139	5.081543
-39.6187	138.936	5.1499
-39.6145	137.7706	5.21826
-39.6084	140.995	5.28662
-39.6025	147.343	5.35498
-39.5959	145.179	5.42334
-39.591	145.3593	5.4917
-39.5864	149.419	5.56006
-39.5803	152.85	5.628418
-39.5744	159.21	5.69678
-39.5676	166.601	5.76514
-39.5615	169.9062	5.8335
-39.5569	169.752	5.90186
-39.5503	173.4512	5.97021
-39.54594	177.753	6.03857
-39.5393	175.107	6.10693
-39.534	176.8582	6.175293
-39.528	180.4267	6.24365
-39.5232	182.722	6.31201
-39.5171	187.912	6.38037
-39.5111	195.418	6.44873
-39.5059	197.721	6.51709
-39.5	200.03	6.58545
-39.4936	206.072	6.65381
-39.4895	208.817	6.722168
-39.4824	207.259	6.79053
-39.4776	209.731	6.85889
-39.4716	212.839	6.92725
-39.4656	211.823	6.99561
-39.4595	216.905	7.06396
-39.4542	223.491	7.13232
-39.4482	226.757	7.20068
-39.44331	228.6	7.269043
-39.4372	235.406	7.3374
-39.4305	238.929	7.40576
-39.4258	238.062	7.47412
-39.4208	240.402	7.54248
-39.4155	242.463	7.61084
-39.4089	244.325	7.6792
-39.4023	245.824	7.74756
-39.3971	250.603	7.815918
-39.3923	253.477	7.88428
-39.3867	256.007	7.95264
-39.381	264.645	8.021
-39.3743	268.395	8.08936
-39.3688	269.556	8.15771
-39.36401	271.141	8.22607
-39.3565	271.809	8.29443
-39.3513	273.776	8.362793
-39.34621	275.452	8.43115
-39.3411	279.526	8.49951
-39.3327	279.659	8.56787
-39.3295	284.406	8.63623
-39.3231	293.158	8.70459
-39.3179	295.2435	8.77295
-39.31118	298.774	8.84131
-39.3062	301.1532	8.909668
-39.29987	301.456	8.97803
-39.295	302.858	9.04639
-39.2895	303.721	9.11475
-39.2839	304.722	9.18311
-39.278	304.814	9.25146
-39.2731	311.217	9.31982
-39.2651	319.332	9.38818
-39.2611	321.652	9.456543
-39.2554	325.99	9.5249
-39.2501	328.391	9.59326
-39.2432	328.3515	9.66162
-39.23801	330.749	9.72998
-39.2325	330.7048	9.79834
-39.2261	330.293	9.8667
-39.2206	331.213	9.93506
-39.2149	337.756	10.0034
-39.2099	341.961	10.0718
-39.2047	344.948	10.1401
-39.1978	352.672	10.2085
-39.1927	354.517	10.2769
-39.187	357.956	10.3452
-39.18148	358.542	10.4136
-39.1746	358.164	10.4819
-39.16935	355.896	10.5503
-39.1641	356.787	10.6187
-39.1582	362.954	10.687
-39.1532	364.92	10.7554
-39.1465	370.133	10.82373
-39.14056	375.9671	10.89209
-39.135	377.054	10.9604
-39.1304	379.233	11.0288
-39.125	383.678	11.0972
-39.11895	383.9371	11.1655
-39.1121	379.042	11.2339
-39.1069	380.548	11.3022
-39.1014	386.402	11.3706
-39.0951	384.391	11.439
-39.0901	389.416	11.5073
-39.0838	395.375	11.5757
-39.0774	397.277	11.644
-39.07209	401.713	11.7124
-39.0671	404.741	11.7808
-39.0613	404.696	11.8491
-39.0569	400.763	11.91748
-39.0504	402.525	11.98584
-39.04501	406.249	12.0542
-39.0391	402.801	12.1226
-39.0331	407.605	12.1909
-39.0272	410.092	12.2593
-39.0215	413.348	12.3276
-39.0155	417.8504	12.396
-39.0097	421.423	12.4644
-39.0053	421.155	12.5327
-38.99818	416.97	12.6011
-38.9938	419.715	12.6694
-38.9886	419.308	12.7378
-38.9807	416.842	12.8062
-38.9762	418.715	12.8745
-38.9705	423.882	12.9429
-38.9645	423.5899	13.01123
-38.9589	429.296	13.07959
-38.954	433.9	13.1479
-38.9481	431.961	13.2163
-38.9414	428.914	13.2847
-38.9361	431.563	13.353
-38.9304	429.719	13.4214
-38.9248	425.766	13.4897
-38.9197	427.17	13.5581
-38.9138	429.364	13.6265
-38.9076	432.725	13.6948
-38.90287	434.197	13.7632
-38.896	437.93	13.8315
-38.8902	437.408	13.8999
-38.8845	436.879	13.9683
-38.8788	439.092	14.0366
-38.8735	437.769	14.10498
-38.8677	430.458	14.17334
-38.8614	431.187	14.2417
-38.8571	432.058	14.3101
-38.8512	434.077	14.3784
-38.8457	436.345	14.4468
-38.8394	438.623	14.5151
-38.835	438.229	14.5835
-38.8278	438.649	14.6519
-38.8217	440.504	14.7202
-38.8165	437.074	14.7886
-38.8109	434.145	14.8569
-38.8059	431.963	14.9253
-38.8	431.007	14.9937
-38.7935	432.948	15.062
-38.7883	433.816	15.1304
-38.7819	435.22	15.19873
-38.7769	434.912	15.26709
-38.772	437.339	15.3354
-38.7651	438.879	15.4038
-38.75914	435.096	15.4722
-38.755	434.799	15.5405
-38.7466	431.471	15.6089
-38.7426	428.762	15.6772
-38.73642	428.431	15.7456
-38.7316	428.852	15.814
-38.7259	428.595	15.8823
-38.7196	428.256	15.9507
-38.7135	434.507	16.019
-38.7091	433.668	16.0874
-38.7032	432.442	16.1558
-38.6973	432.375	16.2241
-38.69173	428.655	16.29248
-38.6841	424.719	16.36084
-38.68084	426.1066	16.4292
-38.6746	424.662	16.4976
-38.668	422.945	16.5659
-38.6624	424.292	16.6343
-38.6567	429.654	16.7026
-38.6517	428.679	16.771
-38.6451	427.572	16.8394
-38.64045	429.831	16.9077
-38.6362	425.6218	16.9761
-38.6283	423.541	17.0444
-38.6219	422.889	17.1128
-38.6174	423.121	17.1812
-38.6107	418.443	17.2495
-38.607	418.795	17.3179
-38.59993	425.877	17.38623
-38.5938	424.721	17.45459
-38.5896	424.244	17.5229
-38.5824	429.462	17.5913
-38.5763	426.261	17.6597
-38.5725	422.535	17.728
-38.5657	421.714	17.7964
-38.5609	419.943	17.8647
-38.5554	415.915	17.9331
-38.5489	416.294	18.0015
-38.5439	422.439	18.0698
-38.5373	421.037	18.1382
-38.532	422.501	18.2065
-38.52486	426.077	18.2749
-38.5194	424.148	18.3433
-38.5135	424.318	18.4116
-38.5098	421.015	18.47998
-38.5047	417.786	18.54834
-38.4984	412.874	18.6167
-38.4918	413.677	18.6851
-38.4872	419.0473	18.7534
-38.4813	418.223	18.8218
-38.4742	419.562	18.8901
-38.4695	423.288	18.9585
-38.4642	423.82	19.0269
-38.4569	422.406	19.0952
-38.451	422.5011	19.1636
-38.4461	417.268	19.2319
-38.4409	412.3844	19.3003
-38.4341	413.253	19.3687
-38.42897	415.174	19.437
-38.4236	414.63	19.5054
-38.41758	417.712	19.57373
-38.4123	421.609	19.64209
-38.4059	422.202	19.7104
-38.40012	423.199	19.7788
-38.3954	421.7775	19.8472
-38.38829	417.455	19.9155
-38.3837	413.494	19.9839
-38.3819	420.218	20.0132

Data Header:			0.254_hd_uprint_typeiv_090_r0			Time:	29.5054	s	4/13/2019 10:58:58 PM
Data Acquisition:	Timed
Station Name:	ft40.cfg
Test File Name:	monotonic_0.2540_typeiv_solid_4545_uprint.tst
Displacement	Force	Running Time
mm	N	s
-38.3811	420.421	20.0229
-38.3774	414.699	20.062
-38.3742	417.2	20.1011
-38.3703	418.501	20.1401
-38.3676	415.1752	20.1792
-38.3636	421.683	20.2183
-38.3608	415.048	20.2573
-38.3578	417.556	20.2964
-38.3544	421.533	20.3354
-38.3522	412.6853	20.3745
-38.349	421.458	20.4136
-38.343	418.803	20.4526
-38.3419	414.607	20.4917
-38.3377	421.06	20.5308
-38.3342	416.035	20.5698
-38.3325	412.31	20.6089
-38.3283	421.221	20.6479
-38.3255	413.139	20.687
-38.3219	418.6178	20.7261
-38.3182	417.525	20.7651
-38.3154	411.519	20.8042
-38.3127	421.0163	20.8433
-38.3086	411.892	20.8823
-38.3054	414.421	20.9214
-38.3028	418.465	20.9604
-38.29961	410.539	20.9995
-38.2961	415.301	21.0386
-38.2928	419.4021	21.0776
-38.2901	408.933	21.1167
-38.2861	418.79	21.1558
-38.2837	413.893	21.1948
-38.2794	411.501	21.2339
-38.2764	420.851	21.2729
-38.2726	414.001	21.312
-38.2699	415.757	21.3511
-38.2669	417.274	21.3901
-38.2624	413.805	21.4292
-38.2587	416.454	21.4683
-38.2565	412.254	21.5073
-38.2527	415.247	21.5464
-38.2492	420.628	21.5854
-38.2473	410.076	21.6245
-38.2439	418.185	21.6636
-38.2401	419.16	21.7026
-38.237	410.148	21.7417
-38.2334	422.173	21.7808
-38.2311	415.011	21.8198
-38.2263	414.128	21.8589
-38.2243	419.229	21.8979
-38.221	413.5968	21.937
-38.2173	416.172	21.9761
-38.2147	414.981	22.0151
-38.2108	411.278	22.0542
-38.2066	417.6	22.0933
-38.2047	412.673	22.1323
-38.20174	410.407	22.1714
-38.1988	419.846	22.2104
-38.19482	409.24	22.2495
-38.19035	416.072	22.2886
-38.1886	415.887	22.3276
-38.1856	409.207	22.3667
-38.182	416.95	22.4058
-38.1776	412.75	22.4448
-38.1757	412.318	22.4839
-38.17247	416.949	22.5229
-38.16909	413.312	22.562
-38.16555	415.201	22.6011
-38.1619	416.227	22.6401
-38.1591	411.218	22.6792
-38.1559	421.557	22.7183
-38.1521	411.156	22.7573
-38.1489	414.423	22.7964
-38.1459	419.905	22.8354
-38.1424	411.645	22.8745
-38.1399	417.237	22.9136
-38.1372	417.7533	22.9526
-38.1333	411.325	22.9917
-38.1298	419.371	23.0308
-38.12653	414.541	23.0698
-38.1229	413.304	23.1089
-38.1206	418.837	23.1479
-38.1178	409.34	23.187
-38.11319	414.475	23.2261
-38.1108	413.382	23.2651
-38.107	410.357	23.3042
-38.1036	415.469	23.3433
-38.1011	409.974	23.3823
-38.0974	411.9299	23.4214
-38.0946	416.614	23.4604
-38.0894	408.477	23.4995
-38.08667	413.794	23.5386
-38.0834	417.95	23.5776
-38.081	406.544	23.6167
-38.0769	416.252	23.6558
-38.0742	411.22	23.6948
-38.0708	409.67	23.7339
-38.0679	416.901	23.7729
-38.0643	410.383	23.812
-38.0624	412.742	23.8511
-38.058	414.4949	23.8901
-38.0549	411.328	23.9292
-38.0515	417.015	23.9683
-38.0488	412.593	24.0073
-38.04525	412.699	24.0464
-38.042	419.107	24.0854
-38.0386	408.967	24.1245
-38.0349	417.813	24.1636
-38.032	416.267	24.2026
-38.029	409.336	24.2417
-38.0265	418.777	24.2808
-38.02306	413.2623	24.3198
-38.019	411.668	24.3589
-38.0158	417.862	24.3979
-38.0121	409.318	24.437
-38.00985	410.211	24.4761
-38.0055	413.849	24.5151
-38.0036	406.219	24.5542
-37.9997	415.699	24.5933
-37.9959	408.151	24.6323
-37.9938	408.244	24.6714
-37.9891	416.804	24.7104
-37.9869	404.135	24.7495
-37.98386	412.178	24.7886
-37.9813	413.042	24.8276
-37.9774	405.971	24.8667
-37.9728	413.304	24.9058
-37.9691	409.657	24.9448
-37.9673	407.615	24.9839
-37.9638	414.53	25.0229
-37.9608	409.811	25.062
-37.9571	412.661	25.1011
-37.9537	411.345	25.1401
-37.9511	408.705	25.1792
-37.9478	415.8898	25.2183
-37.9438	407.549	25.2573
-37.941	409.744	25.2964
-37.9378	414.834	25.3354
-37.93539	406.572	25.3745
-37.9308	414.097	25.4136
-37.9283	413.3638	25.4526
-37.9241	406.547	25.4917
-37.9214	413.766	25.5308
-37.9182	409.57	25.5698
-37.9152	407.3671	25.6089
-37.9135	414.197	25.6479
-37.9087	405.428	25.687
-37.9055	409.945	25.7261
-37.9021	409.354	25.7651
-37.8983	404.3815	25.8042
-37.8947	412.3316	25.8433
-37.8919	405.403	25.8823
-37.8895	405.072	25.9214
-37.88546	412.305	25.9604
-37.88073	402.8168	25.9995
-37.879	407.228	26.0386
-37.8754	412.544	26.0776
-37.8728	401.931	26.1167
-37.8698	411.68	26.1558
-37.8664	406.154	26.1948
-37.86211	404.484	26.2339
-37.8603	411.694	26.2729
-37.8558	404.91	26.312
-37.8536	407.936	26.3511
-37.8507	408.667	26.3901
-37.8463	403.572	26.4292
-37.8434	410.532	26.4683
-37.8394	406.429	26.5073
-37.8369	404.582	26.5464
-37.8336	412.368	26.5854
-37.83025	401.072	26.6245
-37.827	406.804	26.6636
-37.8237	407.237	26.7026
-37.8209	399.847	26.7417
-37.8159	408.9173	26.7808
-37.81329	402.925	26.8198
-37.81073	398.753	26.8589
-37.8072	403.883	26.8979
-37.8041	397.342	26.937
-37.8005	400.483	26.9761
-37.7983	399.199	27.0151
-37.7936	392.323	27.0542
-37.7909	397.621	27.0933
-37.7854	-14.0958	27.1323
-37.7832	-44.5971	27.1714
-37.7817	-36.1121	27.2104
-37.77721	-47.381	27.2495
-37.7748	-38.3999	27.2886
-37.7722	-39.2099	27.3276
-37.7694	-45.4881	27.3667
-37.7661	-39.40493	27.4058
-37.7622	-39.5069	27.4448
-37.7573	-44.5463	27.4839
-37.7558	-37.08	27.5229
-37.7517	-42.8123	27.562
-37.7481	-40.3133	27.6011
-37.7448	-38.4302	27.6401
-37.742	-42.1662	27.6792
-37.7396	-35.98201	27.7183
-37.735	-42.6961	27.7573
-37.7332	-41.9687	27.7964
-37.7288	-36.4913	27.8354
-37.7266	-43.8129	27.8745
-37.7224	-39.1401	27.9136
-37.7191	-38.9305	27.9526
-37.715	-46.7562	27.9917
-37.7126	-38.7327	28.0308
-37.71	-41.20602	28.0698
-37.7068	-44.3677	28.1089
-37.7043	-37.8302	28.1479
-37.7001	-45.3119	28.187
-37.6967	-40.2876	28.2261
-37.6929	-43.1074	28.2651
-37.68932	-43.7423	28.3042
-37.6864	-38.0292	28.3433
-37.6833	-43.9914	28.3823
-37.6808	-42.72982	28.4214
-37.6769	-36.6438	28.4604
-37.67313	-48.00452	28.4995
-37.6715	-40.1456	28.5386
-37.6677	-38.0689	28.5776
-37.6641	-47.27578	28.6167
-37.6605	-38.13	28.6558
-37.6575	-41.4465	28.6948
-37.654	-42.3812	28.7339
-37.6517	-38.2624	28.7729
-37.6488	-42.4134	28.812
-37.6456	-38.78215	28.8511
-37.6414	-38.6003	28.8901
-37.6389	-42.492	28.9292
-37.635	-35.724	28.9683
-37.6311	-41.1678	29.0073
-37.628	-40.08585	29.0464
-37.62466	-35.48748	29.0854
-37.6217	-46.1023	29.1245
-37.6182	-39.4987	29.1636
-37.6156	-39.5649	29.2026
-37.6126	-44.0297	29.2417
-37.6094	-36.1657	29.2808
-37.6052	-42.9383	29.3198
-37.6027	-43.02647	29.3589
-37.5998	-38.87122	29.3979
-37.5955	-45.1822	29.437
-37.59198	-40.4705	29.4761
-37.5911	-43.2233	29.4956