File: data/processed_data_files/tensile/0.254_solid_dimension_typeiv_090_r(3).dat
MTS793|BTW|ENU|1|2|.|/|:|1|0|0|A

Data Header:			0.254_solid_dimension_typeiv_090_r0			Time:	20.0173	s	4/14/2019 1:41:41 AM
Data Acquisition:	Timed
Station Name:	ft40.cfg
Test File Name:	monotonic_0.2540_typeiv_solid_090_dimension.tst
Displacement	Force	Running Time
mm	N	s
-40.0416	-126.1864	0.0224609
-40.04	-120.424	0.0908203
-40.0352	-118.3804	0.15918
-40.02895	-114.26	0.227539
-40.0243	-105.569	0.295898
-40.0175	-102.785	0.364258
-40.0113	-100.687	0.432617
-40.0051	-97.3206	0.500977
-40.0013	-95.49044	0.569336
-39.9943	-97.9676	0.637695
-39.9894	-92.2273	0.706055
-39.9839	-86.6757	0.774414
-39.9778	-81.34803	0.842773
-39.9723	-79.3288	0.911133
-39.9655	-70.902	0.979492
-39.9604	-67.2545	1.04785
-39.9556	-63.91164	1.11621
-39.9495	-59.4692	1.18457
-39.9439	-58.223	1.25293
-39.9376	-59.6317	1.32129
-39.9326	-55.461	1.38965
-39.92598	-50.9048	1.45801
-39.9219	-49.9696	1.52637
-39.9155	-42.9053	1.59473
-39.9094	-38.6668	1.66309
-39.9038	-32.4891	1.73145
-39.8978	-28.3837	1.7998
-39.8922	-24.1238	1.86816
-39.8866	-22.8632	1.93652
-39.881	-22.4142	2.00488
-39.8758	-16.8712	2.07324
-39.8693	-16.6755	2.1416
-39.8628	-15.0664	2.20996
-39.8595	-10.8101	2.27832
-39.8524	-4.27724	2.34668
-39.8465	2.64455	2.41504
-39.84045	7.06498	2.4834
-39.8358	12.3865	2.55176
-39.8299	12.48	2.62012
-39.8248	13.9913	2.68848
-39.819	18.6053	2.75684
-39.8126	19.65818	2.8252
-39.8065	21.9532	2.89355
-39.801	24.7213	2.96191
-39.7959	27.2588	3.03027
-39.7906	37.90995	3.09863
-39.7845	42.05547	3.16699
-39.778	45.5604	3.23535
-39.7728	46.2357	3.30371
-39.7676	51.3214	3.37207
-39.7625	55.3585	3.44043
-39.7558	55.2238	3.50879
-39.7504	57.9117	3.57715
-39.7441	59.4594	3.64551
-39.7389	61.6962	3.71387
-39.7338	69.7368	3.78223
-39.728	75.8795	3.85059
-39.7224	78.7926	3.91895
-39.7163	81.2263	3.9873
-39.712	87.1441	4.05566
-39.7035	90.15863	4.12402
-39.6989	91.2195	4.19238
-39.6937	94.458	4.26074
-39.688	96.6073	4.3291
-39.6819	96.9206	4.39746
-39.6763	103.239	4.46582
-39.6701	110.516	4.53418
-39.6651	112.441	4.60254
-39.6593	115.333	4.6709
-39.6532	123.906	4.73926
-39.6477	126.4976	4.80762
-39.64143	126.35	4.87598
-39.6365	130.948	4.94434
-39.63105	133.09	5.0127
-39.6249	134.5006	5.08105
-39.62019	138.686	5.14941
-39.6129	143.012	5.21777
-39.6076	144.566	5.28613
-39.6025	149.897	5.35449
-39.59483	158.458	5.42285
-39.5913	159.921	5.49121
-39.5854	161.871	5.55957
-39.579	165.33	5.62793
-39.57312	166.952	5.69629
-39.5672	168.295	5.76465
-39.5624	172.055	5.83301
-39.5563	177.311	5.90137
-39.55051	174.455	5.96973
-39.5451	182.316	6.03809
-39.5403	189.978	6.10645
-39.5352	194.821	6.1748
-39.5274	196.491	6.24316
-39.5222	202.433	6.31152
-39.5165	200.109	6.37988
-39.5108	202.591	6.44824
-39.5058	207.138	6.5166
-39.5001	208.809	6.58496
-39.4929	206.864	6.65332
-39.4878	215.671	6.72168
-39.4831	222.9817	6.79004
-39.47681	224.097	6.8584
-39.4715	228.725	6.92676
-39.4664	234.046	6.99512
-39.46	235.131	7.06348
-39.4542	237.672	7.13184
-39.449	238.963	7.2002
-39.4433	240.735	7.26855
-39.4369	239.153	7.33691
-39.4309	246.616	7.40527
-39.4262	254.6635	7.47363
-39.4207	255.348	7.54199
-39.4143	262.159	7.61035
-39.4098	266.659	7.67871
-39.4026	268.552	7.74707
-39.3972	272.362	7.81543
-39.3911	273.278	7.88379
-39.386	272.98	7.95215
-39.3786	272.914	8.02051
-39.3752	279.504	8.08887
-39.3695	284.822	8.15723
-39.3635	288.151	8.22559
-39.357	294.019	8.29395
-39.3516	299.025	8.3623
-39.346	301.896	8.43066
-39.3389	302.79	8.49902
-39.3346	306.38	8.56738
-39.3287	303.128	8.63574
-39.32259	306.065	8.7041
-39.3174	311.977	8.77246
-39.3118	313.631	8.84082
-39.3065	316.8132	8.90918
-39.3006	321.539	8.97754
-39.2954	327.463	9.0459
-39.2891	333.343	9.11426
-39.2842	335.375	9.18262
-39.278	336.181	9.25098
-39.2721	334.523	9.31934
-39.26635	335.5105	9.3877
-39.26046	341.789	9.45605
-39.255	342.3735	9.52441
-39.2493	347.651	9.59277
-39.2434	351.444	9.66113
-39.23819	354.028	9.72949
-39.2309	362.454	9.79785
-39.227	363.591	9.86621
-39.2207	364.318	9.93457
-39.2157	364.461	10.00293
-39.2097	368.152	10.0713
-39.203	369.1723	10.1396
-39.1985	369.638	10.208
-39.1924	372.549	10.2764
-39.1853	377.161	10.3447
-39.18084	381.499	10.4131
-39.1752	388.794	10.4814
-39.1693	391.943	10.5498
-39.1643	391.365	10.6182
-39.1596	392.905	10.6865
-39.1532	396.676	10.7549
-39.146	396.759	10.8232
-39.1413	396.562	10.8916
-39.1353	399.883	10.96
-39.1304	402.664	11.02832
-39.1245	406.715	11.09668
-39.118	412.889	11.165
-39.1133	415.041	11.2334
-39.1064	414.44	11.3018
-39.1013	416.786	11.3701
-39.0957	423.874	11.4385
-39.0901	419.7356	11.5068
-39.0842	421.212	11.5752
-39.0777	422.036	11.6436
-39.0715	422.773	11.7119
-39.06749	427.601	11.7803
-39.0612	433.01	11.8486
-39.0558	434.839	11.917
-39.0498	434.987	11.9854
-39.0436	440.11	12.0537
-39.0392	442.841	12.12207
-39.032	440.1709	12.19043
-39.0262	440.698	12.2588
-39.0224	441.854	12.3271
-39.0147	440.353	12.3955
-39.0106	443.337	12.4639
-39.0034	447.789	12.5322
-38.9988	449.17	12.6006
-38.9928	450.15	12.6689
-38.9865	455.894	12.7373
-38.9826	457.343	12.8057
-38.97588	454.902	12.874
-38.9687	456.5976	12.9424
-38.9632	455.279	13.0107
-38.958	454.171	13.0791
-38.9528	455.881	13.1475
-38.9455	456.561	13.21582
-38.9428	455.367	13.28418
-38.9356	458.783	13.3525
-38.9305	464.177	13.4209
-38.9247	464.026	13.4893
-38.9184	464.414	13.5576
-38.9128	463.721	13.626
-38.9079	461.103	13.6943
-38.9016	459.76	13.7627
-38.89587	458.997	13.8311
-38.8899	461.567	13.8994
-38.8855	457.303	13.9678
-38.8793	459.616	14.0361
-38.8733	464.941	14.1045
-38.86652	467.683	14.1729
-38.862	464.8844	14.2412
-38.8569	464.219	14.30957
-38.8511	464.9212	14.37793
-38.8445	461.215	14.4463
-38.8398	461.818	14.5146
-38.8331	459.845	14.583
-38.82795	458.082	14.6514
-38.82143	457.8934	14.7197
-38.8172	463.073	14.7881
-38.8105	462.469	14.8564
-38.8043	463.824	14.9248
-38.7984	465.327	14.9932
-38.7928	461.105	15.0615
-38.78812	461.68	15.1299
-38.7815	458.833	15.1982
-38.7761	455.85	15.2666
-38.771	452.293	15.335
-38.765	455.192	15.40332
-38.7592	456.512	15.47168
-38.7534	456.914	15.54
-38.7477	458.324	15.6084
-38.7426	459.676	15.6768
-38.7361	458.315	15.7451
-38.7304	456.915	15.8135
-38.7245	455.74	15.8818
-38.7198	450.458	15.9502
-38.7145	447.685	16.0186
-38.7085	450.793	16.0869
-38.7019	450.9837	16.1553
-38.6963	452.254	16.2236
-38.6903	453.086	16.292
-38.6848	453.822	16.3604
-38.6797	455.97	16.4287
-38.6727	455.096	16.49707
-38.6678	452.363	16.56543
-38.66124	449.903	16.6338
-38.6566	445.376	16.7021
-38.6518	448.201	16.7705
-38.6453	446.608	16.8389
-38.63921	446.656	16.9072
-38.6344	450.604	16.9756
-38.6275	449.207	17.0439
-38.6236	453.164	17.1123
-38.6167	454.191	17.1807
-38.6111	449.536	17.249
-38.6052	447.946	17.3174
-38.5986	447.331	17.3857
-38.5933	446.193	17.4541
-38.5884	442.814	17.5225
-38.5829	443.425	17.59082
-38.5781	445.211	17.65918
-38.5708	446.711	17.7275
-38.5653	451.013	17.7959
-38.5599	451.665	17.8643
-38.5545	446.851	17.9326
-38.5484	444.964	18.001
-38.543	447.807	18.0693
-38.5375	445.437	18.1377
-38.5304	441.517	18.2061
-38.5273	443.7858	18.2744
-38.51825	442.536	18.3428
-38.515	444.49	18.4111
-38.50811	448.012	18.4795
-38.5027	450.972	18.5479
-38.4988	446.0946	18.6162
-38.4906	445.013	18.68457
-38.4853	447.625	18.75293
-38.4793	443.132	18.8213
-38.4741	441.307	18.8896
-38.4683	441.82	18.958
-38.4631	441.35	19.0264
-38.4575	440.275	19.0947
-38.4519	444.845	19.1631
-38.4459	448.305	19.2314
-38.4407	444.159	19.2998
-38.4347	445.56	19.3682
-38.4305	448.439	19.4365
-38.4234	443.713	19.5049
-38.4183	440.108	19.5732
-38.4124	441.256	19.6416
-38.4064	439.402	19.71
-38.3999	438.775	19.77832
-38.3959	443.074	19.84668
-38.3883	441.953	19.915
-38.383	442.315	19.9834
-38.3817	442.186	20.0127

Data Header:			0.254_solid_dimension_typeiv_090_r0			Time:	30.874	s	4/14/2019 1:41:51 AM
Data Acquisition:	Timed
Station Name:	ft40.cfg
Test File Name:	monotonic_0.2540_typeiv_solid_090_dimension.tst
Displacement	Force	Running Time
mm	N	s
-38.3798	438.674	20.0225
-38.3763	446.804	20.0615
-38.3751	442.192	20.1006
-38.3696	441.014	20.1396
-38.3672	446.6842	20.1787
-38.3629	437.975	20.2178
-38.3604	443.15	20.2568
-38.3577	447.5015	20.2959
-38.3546	437.704	20.335
-38.3512	446.196	20.374
-38.3479	443.488	20.4131
-38.3435	440.103	20.4521
-38.3409	445.663	20.4912
-38.3371	442.293	20.5303
-38.3347	445.692	20.5693
-38.3302	446.682	20.6084
-38.3286	438.138	20.6475
-38.3254	445.784	20.6865
-38.3204	444.771	20.7256
-38.3183	440.7937	20.7646
-38.3144	446.5556	20.8037
-38.312	438.859	20.8428
-38.3088	442.111	20.8818
-38.3057	445.334	20.9209
-38.3009	437.723	20.96
-38.2983	442.739	20.999
-38.2955	441.224	21.0381
-38.2931	441.114	21.0771
-38.2882	443.566	21.1162
-38.2862	439.961	21.1553
-38.2823	440.66	21.1943
-38.2797	443.258	21.2334
-38.2755	436.788	21.2725
-38.2728	445.972	21.3115
-38.269	438.871	21.3506
-38.2656	439.705	21.3896
-38.2633	446.234	21.4287
-38.2601	436.843	21.4678
-38.2552	441.056	21.5068
-38.2529	444.286	21.5459
-38.2486	438.171	21.585
-38.2466	443.542	21.624
-38.2444	444.199	21.6631
-38.24	441.144	21.7021
-38.2373	447.214	21.7412
-38.2332	439.633	21.7803
-38.2308	443.95	21.8193
-38.2275	443.797	21.8584
-38.2234	438.7467	21.8975
-38.2199	445.678	21.9365
-38.2168	440.601	21.9756
-38.2147	438.145	22.0146
-38.2123	445.683	22.0537
-38.2077	438.627	22.0928
-38.2041	438.766	22.1318
-38.2016	444.314	22.1709
-38.1975	436.59	22.21
-38.1944	442.236	22.249
-38.1904	440.0712	22.2881
-38.1879	438.566	22.3271
-38.1845	441.158	22.3662
-38.182	438.476	22.4053
-38.1785	443.043	22.4443
-38.1749	441.979	22.4834
-38.1715	437.26	22.5225
-38.1686	444.162	22.5615
-38.1663	440.1962	22.6006
-38.1619	437.877	22.6396
-38.1596	446.837	22.6787
-38.1553	438.32	22.7178
-38.1528	441.414	22.7568
-38.1491	446.907	22.7959
-38.1455	438.125	22.835
-38.1428	444.64	22.874
-38.1387	441.908	22.9131
-38.1367	440.5928	22.9521
-38.1328	443.739	22.9912
-38.12986	439.5177	23.0303
-38.1263	441.437	23.0693
-38.1226	444.092	23.1084
-38.12006	437.107	23.1475
-38.1174	443.908	23.1865
-38.1135	439.076	23.2256
-38.1107	437.632	23.2646
-38.107	444.054	23.3037
-38.1034	434.867	23.3428
-38.1005	438.757	23.3818
-38.09676	443.068	23.4209
-38.0936	437.48	23.46
-38.09	438.408	23.499
-38.088	439.32	23.5381
-38.0834	438.144	23.5771
-38.0814	441.309	23.6162
-38.0784	436.47	23.6553
-38.0742	441.393	23.6943
-38.0708	439.794	23.7334
-38.0673	433.938	23.7725
-38.0652	444.953	23.8115
-38.0616	438.716	23.8506
-38.0585	439.352	23.8896
-38.0547	444.147	23.9287
-38.0512	438.628	23.9678
-38.0484	439.594	24.0068
-38.0445	445.12	24.0459
-38.042	437.445	24.085
-38.0374	443.205	24.124
-38.0359	441.725	24.1631
-38.0331	438.406	24.2021
-38.02914	443.777	24.2412
-38.0255	436.549	24.2803
-38.0225	440.921	24.3193
-38.0187	441.063	24.3584
-38.0159	437.372	24.3975
-38.0119	442.344	24.4365
-38.0091	438.933	24.4756
-38.0054	436.251	24.5146
-38.0033	443.045	24.5537
-37.9991	435.449	24.5928
-37.9954	435.971	24.6318
-37.9928	440.074	24.6709
-37.9902	434.978	24.71
-37.9861	440.28	24.749
-37.983	437.379	24.7881
-37.97945	437.6524	24.8271
-37.978	439.158	24.8662
-37.9735	434.9465	24.9053
-37.9691	438.348	24.9443
-37.9673	437.432	24.9834
-37.96262	436.0065	25.0225
-37.9607	442.344	25.0615
-37.9582	437.732	25.1006
-37.9536	435.133	25.1396
-37.9508	443.3028	25.1787
-37.9479	435.48	25.2178
-37.9437	438.593	25.2568
-37.9416	441.009	25.2959
-37.9375	434.415	25.335
-37.93441	439.549	25.374
-37.9309	438.5636	25.4131
-37.928	435.152	25.4521
-37.9241	440.662	25.4912
-37.9221	434.195	25.5303
-37.918	438.036	25.5693
-37.9144	438.82	25.6084
-37.9106	432.619	25.6475
-37.9083	439.694	25.6865
-37.9051	435.95	25.7256
-37.9025	433.156	25.7646
-37.8983	439.616	25.8037
-37.895	434.378	25.8428
-37.8917	433.192	25.8818
-37.8885	437.245	25.9209
-37.8854	434.624	25.96
-37.8816	435.974	25.999
-37.8794	436.209	26.0381
-37.8757	432.939	26.0771
-37.8725	438.042	26.1162
-37.8694	432.522	26.1553
-37.8654	437.279	26.1943
-37.8628	435.486	26.2334
-37.8587	432.4339	26.2725
-37.8562	439.317	26.3115
-37.8523	436.557	26.3506
-37.8498	433.2554	26.3896
-37.8454	439.8	26.4287
-37.8428	434.205	26.4678
-37.8409	434.997	26.5068
-37.8363	438.822	26.5459
-37.8332	433.332	26.585
-37.8301	436.5184	26.624
-37.8272	433.7063	26.6631
-37.8235	432.527	26.7021
-37.8208	436.498	26.7412
-37.8165	430.219	26.7803
-37.8145	433.914	26.8193
-37.8107	434.045	26.8584
-37.8076	427.48	26.8975
-37.8036	434.209	26.9365
-37.8014	431.989	26.9756
-37.7979	425.675	27.0146
-37.79483	436.129	27.0537
-37.7903	429.067	27.0928
-37.7877	427.639	27.1318
-37.7857	430.9808	27.1709
-37.781	425.109	27.21
-37.7762	428.7966	27.249
-37.7746	426.048	27.2881
-37.7709	421.562	27.3271
-37.7676	416.9277	27.3662
-37.7623	-41.6064	27.4053
-37.7598	-43.00869	27.4443
-37.7581	-37.8011	27.4834
-37.7552	-45.4083	27.5225
-37.7513	-36.4038	27.5615
-37.74754	-40.571	27.6006
-37.7448	-42.0806	27.6396
-37.7419	-37.4087	27.6787
-37.7377	-43.2372	27.7178
-37.7358	-39.9377	27.7568
-37.7317	-38.5905	27.7959
-37.7289	-43.5059	27.835
-37.7258	-37.9341	27.874
-37.7224	-40.1223	27.9131
-37.7191	-42.8645	27.9521
-37.7154	-37.4242	27.9912
-37.7133	-43.9372	28.0303
-37.7093	-42.1959	28.0693
-37.7053	-38.9163	28.1084
-37.7034	-47.7054	28.1475
-37.6992	-39.7774	28.1865
-37.6953	-41.8177	28.2256
-37.6937	-45.30352	28.2646
-37.689	-40.27113	28.3037
-37.6863	-42.4215	28.3428
-37.6836	-44.80658	28.3818
-37.68	-39.7581	28.4209
-37.67643	-44.4945	28.46
-37.6741	-39.8369	28.499
-37.669	-42.42215	28.5381
-37.6664	-43.1354	28.5771
-37.6646	-38.7369	28.6162
-37.661	-44.2736	28.6553
-37.6568	-38.6178	28.6943
-37.6535	-40.41362	28.7334
-37.6512	-42.7141	28.7725
-37.6483	-38.11977	28.8115
-37.6436	-39.8232	28.8506
-37.6409	-42.829	28.8896
-37.6377	-36.923	28.9287
-37.635	-42.75	28.9678
-37.6309	-40.3997	29.0068
-37.6283	-37.0737	29.0459
-37.6252	-43.6566	29.085
-37.6218	-38.4173	29.124
-37.61805	-43.0005	29.1631
-37.6151	-41.24403	29.2021
-37.6117	-38.6448	29.2412
-37.60825	-44.7966	29.2803
-37.60561	-43.20607	29.3193
-37.6015	-39.1572	29.3584
-37.5985	-46.3674	29.3975
-37.5946	-39.46077	29.4365
-37.5909	-39.8719	29.4756
-37.5881	-46.0061	29.5146
-37.586	-38.4943	29.5537
-37.5824	-43.2525	29.5928
-37.5786	-41.677	29.6318
-37.5758	-38.1059	29.6709
-37.5719	-42.29826	29.71
-37.5691	-39.5005	29.749
-37.5662	-42.2514	29.7881
-37.5637	-41.92989	29.8271
-37.5596	-39.4467	29.8662
-37.556	-42.7418	29.9053
-37.5532	-41.2001	29.9443
-37.5495	-36.5358	29.9834
-37.546	-43.1922	30.0225
-37.5439	-36.7261	30.0615
-37.539	-39.33651	30.1006
-37.53738	-42.1279	30.1396
-37.534	-37.5462	30.1787
-37.5292	-41.0488	30.2178
-37.5274	-41.429	30.2568
-37.5247	-38.7744	30.2959
-37.5203	-42.352	30.335
-37.5183	-38.9435	30.374
-37.5147	-42.1933	30.4131
-37.5098	-43.2633	30.4521
-37.5073	-38.2121	30.4912
-37.5038	-46.233	30.5303
-37.50214	-41.0332	30.5693
-37.4973	-39.6243	30.6084
-37.4953	-47.2917	30.6475
-37.492	-40.4315	30.6865
-37.4885	-41.5791	30.7256
-37.4842	-45.6131	30.7646
-37.48225	-39.1993	30.8037
-37.4793	-41.9644	30.8428
-37.4768	-37.7382	30.8623