File: data/processed_data_files/tensile/0.254_solid_dimension_typei_090_r(2).dat
MTS793|BTW|ENU|1|2|.|/|:|1|0|0|A

Data Header:			0.254_solid_dimension_typei_090_r0			Time:	20.0293	s	4/15/2019 2:14:56 PM
Data Acquisition:	Timed
Station Name:	ft40.cfg
Test File Name:	monotonic_0.2540_typei_solid_090_dimension.tst
Displacement	Force	Running Time
mm	N	s
9.97253	-102.908	0.0341797
9.97569	-100.243	0.102539
9.98139	-97.7865	0.170898
9.98639	-97.8343	0.239258
9.99259	-87.4	0.307617
9.99794	-77.3324	0.375977
10.0045	-76.0372	0.444336
10.0088	-70.8146	0.512695
10.015	-64.5338	0.581055
10.0213	-63.7744	0.649414
10.0271	-63.1506	0.717773
10.0316	-60.1981	0.786133
10.0366	-58.853	0.854492
10.0437	-58.0586	0.922852
10.0506	-51.7574	0.991211
10.0553	-41.7809	1.05957
10.061	-38.4209	1.12793
10.0673	-33.5886	1.19629
10.0725	-26.9291	1.26465
10.078	-23.5911	1.33301
10.0838	-22.0125	1.40137
10.0896	-19.16725	1.46973
10.0955	-20.3127	1.53809
10.09916	-17.827	1.60645
10.1054	-12.6041	1.6748
10.1115	-3.90507	1.74316
10.1178	0.581865	1.81152
10.1231	6.63719	1.87988
10.1291	13.1324	1.94824
10.1357	19.9643	2.0166
10.1398	22.3591	2.08496
10.1458	23.3917	2.15332
10.152	23.522	2.22168
10.1569	24.2326	2.29004
10.1639	29.9021	2.3584
10.1694	35.0647	2.42676
10.1748	40.5966	2.49512
10.1801	48.1072	2.56348
10.1862	53.562	2.63184
10.1924	60.2386	2.7002
10.1972	65.6283	2.76855
10.2032	67.8518	2.83691
10.2094	65.4458	2.90527
10.215	68.2484	2.97363
10.2206	73.0971	3.04199
10.2263	74.3094	3.11035
10.2316	80.201	3.17871
10.2373	87.5426	3.24707
10.2437	92.1081	3.31543
10.2489	99.8303	3.38379
10.2546	106.597	3.45215
10.2598	108.741	3.52051
10.2652	108.442	3.58887
10.2707	112.117	3.65723
10.2765	115.986	3.72559
10.2813	116.705	3.79395
10.2881	120.521	3.8623
10.2945	129.838	3.93066
10.2998	134.4449	3.99902
10.3043	141.261	4.06738
10.3108	149.166	4.13574
10.3165	154.595	4.2041
10.3236	152.243	4.27246
10.329	155.568	4.34082
10.3338	160.726	4.40918
10.3406	158.081	4.47754
10.3455	160.391	4.5459
10.3512	171.5088	4.61426
10.3568	172.138	4.68262
10.3634	181.238	4.75098
10.3687	189.608	4.81934
10.3746	194.635	4.8877
10.3792	194.017	4.95605
10.3857	199.232	5.02441
10.3909	203.94	5.09277
10.3969	201.305	5.16113
10.4034	202.311	5.22949
10.40744	209.422	5.29785
10.4139	214.053	5.36621
10.42	222.5826	5.43457
10.4262	229.4174	5.50293
10.4309	236.398	5.57129
10.4369	237.568	5.63965
10.4421	242.456	5.70801
10.4465	247.138	5.77637
10.4543	244.2003	5.84473
10.459	246.849	5.91309
10.464	249.37	5.98145
10.4707	254.1526	6.0498
10.4757	263	6.11816
10.4824	267.755	6.18652
10.4872	273.084	6.25488
10.4927	279.67	6.32324
10.4995	285.497	6.3916
10.5039	288.505	6.45996
10.5109	288.721	6.52832
10.5162	289.305	6.59668
10.5229	291.567	6.66504
10.5284	295.165	6.7334
10.5322	301.922	6.80176
10.539	307.203	6.87012
10.5455	311.481	6.93848
10.5506	319.128	7.00684
10.55641	327.9	7.0752
10.5619	330.8168	7.14355
10.5677	332.636	7.21191
10.5723	332.984	7.28027
10.5791	333.205	7.34863
10.5845	334.64	7.41699
10.5909	342.029	7.48535
10.5955	345.621	7.55371
10.6014	349.192	7.62207
10.608	359.406	7.69043
10.6134	367.906	7.75879
10.6188	369.728	7.82715
10.6252	372.725	7.89551
10.6296	378.845	7.96387
10.63651	377.081	8.03223
10.64186	376.042	8.10059
10.6472	381.85	8.16895
10.6529	383.938	8.2373
10.6582	387.064	8.30566
10.6648	396.341	8.37402
10.6702	407.179	8.44238
10.6759	409.759	8.51074
10.6814	413.6351	8.5791
10.6875	420.131	8.64746
10.69276	417.807	8.71582
10.6988	420.514	8.78418
10.705	422.996	8.85254
10.709	424.522	8.9209
10.7164	426.603	8.98926
10.7209	434.253	9.05762
10.7269	443.386	9.12598
10.7322	449.03	9.19434
10.7394	453.856	9.2627
10.745	460.699	9.33105
10.7491	460.27	9.39941
10.7559	461.933	9.46777
10.7609	463.053	9.53613
10.7674	463.968	9.60449
10.772	463.774	9.67285
10.7777	473.574	9.74121
10.7833	482.6012	9.80957
10.7894	486.204	9.87793
10.7949	493.849	9.94629
10.8013	500.333	10.0146
10.8071	502.075	10.083
10.8125	504.703	10.1514
10.818	505.12	10.2197
10.8239	502.494	10.2881
10.8287	505.403	10.3564
10.83515	511.331	10.4248
10.84147	519.591	10.4932
10.8457	525.401	10.5615
10.853	532.18	10.6299
10.8578	538.511	10.6982
10.8638	543.233	10.7666
10.8701	546.3399	10.835
10.87562	545.765	10.90332
10.8817	543.631	10.97168
10.886	545.5509	11.04
10.8926	550.087	11.1084
10.8972	554.093	11.1768
10.9019	560.445	11.2451
10.9088	568.295	11.3135
10.9156	572.741	11.3818
10.9202	581.376	11.4502
10.9258	585.275	11.5186
10.9324	585.831	11.5869
10.93751	583.727	11.6553
10.9439	586.102	11.7236
10.9498	590.85	11.792
10.9544	590.174	11.8604
10.9619	596.456	11.9287
10.96678	605.171	11.99707
10.9725	608.886	12.06543
10.9765	619.301	12.1338
10.9831	624.982	12.2021
10.9891	625.709	12.2705
10.9952	623.052	12.3389
11.00019	625.764	12.4072
11.0057	629.707	12.4756
11.0112	627.142	12.5439
11.0182	631.84	12.6123
11.0239	641.7547	12.6807
11.0288	644.618	12.749
11.0349	653.6651	12.8174
11.0397	661.708	12.8857
11.0446	663.732	12.9541
11.0509	662.677	13.0225
11.0574	668.164	13.09082
11.062	668.311	13.15918
11.0687	664.584	13.2275
11.0748	669.585	13.2959
11.0795	675.745	13.3643
11.0846	677.008	13.4326
11.0915	687.634	13.501
11.0973	695.457	13.5693
11.1025	700.833	13.6377
11.1072	699.321	13.7061
11.11414	704.469	13.7744
11.1191	705.565	13.8428
11.1251	702.906	13.9111
11.131	706.082	13.9795
11.1377	710.497	14.0479
11.14292	714.9007	14.1162
11.1479	722.327	14.18457
11.1545	730.265	14.25293
11.1601	733.854	14.3213
11.1658	736.496	14.3896
11.1709	742.6947	14.458
11.1767	742.752	14.5264
11.1823	741.679	14.5947
11.1884	741.7641	14.6631
11.1941	746.027	14.7314
11.1988	748.832	14.7998
11.20507	755.226	14.8682
11.2114	761.432	14.9365
11.2158	765.38	15.0049
11.2229	771.038	15.0732
11.2284	777.309	15.1416
11.2336	778.348	15.21
11.2402	778.704	15.27832
11.2452	779.744	15.34668
11.2511	779.387	15.415
11.2563	781.203	15.4834
11.2625	788.896	15.5518
11.2679	792.806	15.6201
11.2734	797.726	15.6885
11.27894	804.998	15.7568
11.2858	811.116	15.8252
11.2911	811.943	15.8936
11.2959	812.962	15.9619
11.3038	814.453	16.0303
11.308	813.711	16.0986
11.314	817.743	16.167
11.31908	821.539	16.2354
11.3246	821.355	16.3037
11.3299	826.757	16.37207
11.3357	837.761	16.44043
11.3415	843.269	16.5088
11.34819	845.69	16.5771
11.3542	849.763	16.6455
11.3597	850.8927	16.7139
11.3657	848.64	16.7822
11.3707	849.972	16.8506
11.3757	853.896	16.9189
11.3821	852.896	16.9873
11.3878	856.585	17.0557
11.3924	868.118	17.124
11.39945	872.864	17.1924
11.4056	875.699	17.2607
11.4095	880.398	17.3291
11.4171	882.277	17.3975
11.4212	881.0061	17.46582
11.4274	882.443	17.53418
11.4335	884.9516	17.6025
11.438	882.828	17.6709
11.44507	885.737	17.7393
11.4499	895.462	17.8076
11.4558	900.5177	17.876
11.4615	903.484	17.9443
11.4681	909.55	18.0127
11.4741	912.402	18.0811
11.4783	911.028	18.1494
11.4843	913.777	18.2178
11.4899	913.391	18.2861
11.4958	910.706	18.3545
11.5028	911.41	18.4229
11.5074	919.76	18.4912
11.5127	924.403	18.55957
11.5189	928.6	18.62793
11.52501	936.272	18.6963
11.5294	938.401	18.7646
11.5354	939.818	18.833
11.5407	940.9342	18.9014
11.5474	940.066	18.9697
11.5531	936.275	19.0381
11.5584	938.242	19.1064
11.5631	945.21	19.1748
11.5698	946.543	19.2432
11.576	950.053	19.3115
11.5806	956.543	19.3799
11.58694	960.753	19.4482
11.5924	963.72	19.5166
11.5992	963.845	19.585
11.6037	963.399	19.65332
11.6088	960.152	19.72168
11.6153	960.077	19.79
11.622	964.446	19.8584
11.627	966.163	19.9268
11.6319	970.258	19.9951
11.6339	979.279	20.0244

Data Header:			0.254_solid_dimension_typei_090_r0			Time:	40.0303	s	4/15/2019 2:15:16 PM
Data Acquisition:	Timed
Station Name:	ft40.cfg
Test File Name:	monotonic_0.2540_typei_solid_090_dimension.tst
Displacement	Force	Running Time
mm	N	s
11.6359	970.766	20.03418
11.6406	972.472	20.1025
11.6471	969.903	20.1709
11.6521	972.186	20.2393
11.6576	979.7821	20.3076
11.6633	983.333	20.376
11.6703	985.298	20.4443
11.6752	991.915	20.5127
11.6823	990.7829	20.5811
11.6874	991.812	20.6494
11.6925	990.7135	20.7178
11.69825	990.43	20.7861
11.7049	985.626	20.8545
11.7095	987.855	20.9229
11.7154	993.961	20.9912
11.7204	996.769	21.05957
11.72701	998.966	21.12793
11.7318	1003.18	21.1963
11.7385	1005.17	21.2646
11.74395	1006.967	21.333
11.7503	1005.49	21.4014
11.7555	1002.41	21.4697
11.7619	996.834	21.5381
11.7673	1000.69	21.6064
11.7733	1000.28	21.6748
11.7784	1003.301	21.7432
11.7832	1005.74	21.8115
11.7899	1011.626	21.8799
11.7949	1013.8	21.9482
11.8004	1016.42	22.0166
11.80698	1015.9	22.085
11.8125	1010.34	22.15332
11.8178	1006.5	22.22168
11.8232	1008.35	22.29
11.82941	1007.21	22.3584
11.8363	1008.22	22.4268
11.8409	1010.84	22.4951
11.8466	1013.46	22.5635
11.8527	1016.527	22.6318
11.8579	1020.08	22.7002
11.8639	1020.46	22.7686
11.8701	1015.86	22.8369
11.8741	1014.29	22.9053
11.8809	1014.88	22.9736
11.8865	1010.12	23.042
11.8914	1009.51	23.1104
11.8975	1014.53	23.1787
11.9028	1012.98	23.24707
11.9087	1017.98	23.31543
11.9141	1021.33	23.3838
11.9203	1020.95	23.4521
11.9252	1017.51	23.5205
11.9316	1015.71	23.5889
11.9379	1017.45	23.6572
11.943	1011.35	23.7256
11.9494	1009.91	23.7939
11.9556	1012.39	23.8623
11.9597	1012.84	23.9307
11.9663	1017.09	23.999
11.9708	1020.601	24.0674
11.9773	1020.34	24.1357
11.9825	1017.76	24.2041
11.9885	1017.554	24.2725
11.9948	1018.14	24.34082
11.9998	1013.79	24.40918
12.00582	1008.58	24.4775
12.0102	1010.15	24.5459
12.0174	1010.63	24.6143
12.0226	1009.702	24.6826
12.0287	1016.74	24.751
12.0344	1017.98	24.8193
12.0402	1015.96	24.8877
12.0471	1013.96	24.9561
12.0516	1017.09	25.0244
12.0573	1012.02	25.0928
12.0624	1007.11	25.1611
12.0683	1007.06	25.2295
12.0742	1005.27	25.2979
12.0795	1007.277	25.3662
12.0855	1009.74	25.43457
12.0911	1012.45	25.50293
12.0967	1011.94	25.5713
12.1032	1013.91	25.6396
12.1082	1013.94	25.708
12.1141	1010.26	25.7764
12.1193	1006.39	25.8447
12.1264	1003.2	25.9131
12.13086	1001.69	25.9814
12.1367	1002.7	26.0498
12.1433	1003.64	26.1182
12.14744	1006.08	26.1865
12.154	1007.92	26.2549
12.161	1011.66	26.3232
12.1644	1011.255	26.3916
12.1716	1007.86	26.46
12.1765	1006.66	26.52832
12.1825	1002.33	26.59668
12.1884	998.773	26.665
12.1932	1001.18	26.7334
12.1997	999.628	26.8018
12.20602	1000.2	26.8701
12.2113	1002.72	26.9385
12.2173	1007.13	27.0068
12.2227	1007.48	27.0752
12.22815	1005.71	27.1436
12.2331	1005.73	27.2119
12.2392	1001.19	27.2803
12.2452	996.997	27.3486
12.2512	997.8703	27.417
12.2563	998.312	27.4854
12.2629	995.703	27.5537
12.2687	996.945	27.62207
12.2731	1004.22	27.69043
12.2786	1004.495	27.7588
12.2852	1003.87	27.8271
12.2903	1005.08	27.8955
12.2957	1001.62	27.9639
12.3023	996.332	28.0322
12.308	996.62	28.1006
12.3133	995.611	28.1689
12.3193	991.834	28.2373
12.3248	992.394	28.3057
12.3299	1000.202	28.374
12.3369	1000.32	28.4424
12.34155	999.628	28.5107
12.34824	1003.67	28.5791
12.3531	1000.43	28.6475
12.3583	998.511	28.71582
12.3642	994.867	28.78418
12.3703	994.842	28.8525
12.3759	988.5	28.9209
12.3826	989.222	28.9893
12.3877	995.53	29.0576
12.3928	997.051	29.126
12.3986	996.342	29.1943
12.4046	1001.07	29.2627
12.4111	999.478	29.3311
12.4155	999.432	29.3994
12.4223	995.5495	29.4678
12.427	993.253	29.5361
12.4326	988.951	29.6045
12.4376	988.015	29.6729
12.4449	993.318	29.7412
12.4503	994.374	29.80957
12.4559	994.819	29.87793
12.4618	997.914	29.9463
12.4672	998.489	30.0146
12.4729	999.5802	30.083
12.4778	996.837	30.1514
12.48413	992.469	30.2197
12.491	987.834	30.2881
12.4952	988.186	30.3564
12.5012	990.76	30.4248
12.5071	990.214	30.4932
12.5125	993.089	30.5615
12.5181	995.575	30.6299
12.5238	996.676	30.6982
12.5299	1000.91	30.7666
12.53549	998.597	30.835
12.5416	992.697	30.90332
12.5456	987.715	30.97168
12.5523	988.743	31.04
12.5582	990.657	31.1084
12.5641	985.746	31.1768
12.5701	991.128	31.2451
12.5757	993.625	31.3135
12.581	994.557	31.3818
12.5864	999.417	31.4502
12.59251	1000.23	31.5186
12.5982	994.337	31.5869
12.6042	988.216	31.6553
12.60995	990.848	31.7236
12.6153	989.463	31.792
12.6204	985.097	31.8604
12.626	989.041	31.9287
12.6315	991.984	31.99707
12.6388	992.488	32.06543
12.6443	996.444	32.1338
12.6492	999.0614	32.2021
12.6547	995.855	32.2705
12.6608	990.438	32.3389
12.6676	991.684	32.4072
12.67215	988.973	32.4756
12.6782	984.715	32.5439
12.68339	985.618	32.6123
12.6895	989.338	32.6807
12.695	991.191	32.749
12.7003	994.788	32.8174
12.7064	998.696	32.8857
12.7111	996.107	32.9541
12.7176	992.178	33.0225
12.72403	993.649	33.09082
12.73066	989.439	33.15918
12.73516	986.432	33.2275
12.7405	983.297	33.2959
12.7469	987.867	33.3643
12.752	988.013	33.4326
12.7577	990.944	33.501
12.7636	993.939	33.5693
12.7693	997.447	33.6377
12.7743	992.948	33.7061
12.7803	993.922	33.7744
12.7856	992.9743	33.8428
12.7913	987.945	33.9111
12.7968	984.887	33.9795
12.8028	986.595	34.0479
12.8092	986.318	34.1162
12.815	991.35	34.18457
12.8199	993.644	34.25293
12.8262	993.504	34.3213
12.83204	995.077	34.3896
12.8383	995.285	34.458
12.8424	993.086	34.5264
12.8494	987.9566	34.5947
12.8548	985.71	34.6631
12.86048	984.213	34.7314
12.8655	983.9903	34.7998
12.8712	988.761	34.8682
12.8778	990.14	34.9365
12.8826	990.969	35.0049
12.8894	992.742	35.0732
12.89423	997.4093	35.1416
12.9003	993.051	35.21
12.9059	989.735	35.27832
12.9107	989.0108	35.34668
12.9175	985.4397	35.415
12.9227	982.79	35.4834
12.9285	986.459	35.5518
12.9337	990.224	35.6201
12.9395	988.923	35.6885
12.9469	990.087	35.7568
12.9511	996.586	35.8252
12.9575	995.912	35.8936
12.96245	989.056	35.9619
12.9679	989.343	36.0303
12.9735	986.915	36.0986
12.9791	983.487	36.167
12.986	985.724	36.2354
12.9913	988.264	36.3037
12.9968	986.228	36.37207
13.0019	987.817	36.44043
13.0087	996.265	36.5088
13.0136	994.784	36.5771
13.0199	990.8537	36.6455
13.0246	991.047	36.7139
13.0321	987.085	36.7822
13.0374	984.731	36.8506
13.0429	984.662	36.9189
13.0486	987.1	36.9873
13.0532	984.287	37.0557
13.0592	986.464	37.124
13.0649	992.092	37.1924
13.071	994.086	37.2607
13.077	992.704	37.3291
13.0829	991.316	37.3975
13.0885	989.703	37.46582
13.0943	986.6391	37.53418
13.0989	984.932	37.6025
13.1057	985.321	37.6709
13.1106	983.729	37.7393
13.117	984.192	37.8076
13.12147	988.985	37.876
13.1282	991.108	37.9443
13.1335	993.639	38.0127
13.14	990.713	38.0811
13.1459	990.4118	38.1494
13.1506	988.209	38.2178
13.1564	987.276	38.2861
13.1618	982.288	38.3545
13.1679	981.13	38.4229
13.1731	982.749	38.4912
13.178	988.549	38.55957
13.1843	989.132	38.62793
13.1912	992.293	38.6963
13.1958	993.699	38.7646
13.2024	991.405	38.833
13.20682	989.7052	38.9014
13.21295	988.393	38.9697
13.2181	984.654	39.0381
13.22467	979.5741	39.1064
13.2303	980.8269	39.1748
13.2362	986.478	39.2432
13.2427	985.726	39.3115
13.2471	988.035	39.3799
13.2532	992.363	39.4482
13.25862	990.311	39.5166
13.2638	988.919	39.585
13.2712	990.13	39.65332
13.2758	985.537	39.72168
13.2824	978.669	39.79
13.2875	978.843	39.8584
13.2938	986.728	39.9268
13.2993	984.2038	39.9951
13.3011	986.9	40.0244

Data Header:			0.254_solid_dimension_typei_090_r0			Time:	46.2981	s	4/15/2019 2:15:22 PM
Data Acquisition:	Timed
Station Name:	ft40.cfg
Test File Name:	monotonic_0.2540_typei_solid_090_dimension.tst
Displacement	Force	Running Time
mm	N	s
13.3017	983.55	40.03418
13.3043	984.936	40.0635
13.307	986.176	40.0928
13.3098	987.733	40.12207
13.3122	988.752	40.1514
13.3148	983.741	40.1807
13.3169	991.385	40.21
13.3191	980.366	40.2393
13.3214	992.059	40.2686
13.3242	981.344	40.2979
13.3277	993.655	40.3271
13.3289	980.41	40.3564
13.33046	991.776	40.3857
13.3353	982.388	40.415
13.3358	989.612	40.4443
13.3384	980.419	40.4736
13.3413	989.218	40.50293
13.3427	985.867	40.5322
13.3461	987.228	40.5615
13.34845	983.701	40.59082
13.3516	983.705	40.6201
13.3532	988.099	40.6494
13.3552	981.916	40.6787
13.3585	988.896	40.708
13.36101	983.828	40.7373
13.36382	989.821	40.7666
13.367	979.502	40.7959
13.3684	986.541	40.8252
13.3698	982.8421	40.8545
13.3727	989.486	40.8838
13.3755	980.937	40.9131
13.3779	986.695	40.9424
13.3805	984.602	40.97168
13.3828	984.681	41.001
13.38458	984.782	41.0303
13.3869	984.458	41.05957
13.3896	988.95	41.0889
13.39277	980.099	41.1182
13.3947	986.264	41.1475
13.3965	981.982	41.1768
13.3999	988.7	41.2061
13.4018	980.488	41.2354
13.4041	989.468	41.2646
13.4063	981.305	41.2939
13.4086	986.775	41.3232
13.4123	980.663	41.3525
13.4149	988.49	41.3818
13.41644	982.6319	41.4111
13.4194	983.565	41.44043
13.4211	982.2818	41.4697
13.4236	983.967	41.499
13.4261	984.2345	41.52832
13.429	979.141	41.5576
13.4317	988.368	41.5869
13.4336	980.511	41.6162
13.4358	988.106	41.6455
13.438	976.069	41.6748
13.4418	989.089	41.7041
13.4444	978.462	41.7334
13.4462	987.677	41.7627
13.4484	978.298	41.792
13.4503	988.359	41.8213
13.4521	978.534	41.8506
13.4552	983.966	41.8799
13.4593	979.964	41.90918
13.4601	987.818	41.9385
13.4627	981.504	41.9678
13.4662	980.57	41.99707
13.4685	984.374	42.0264
13.4708	980.578	42.0557
13.4721	984.436	42.085
13.4755	979.186	42.1143
13.47865	989.761	42.1436
13.4803	979.942	42.1729
13.4822	986.371	42.2021
13.4857	977.821	42.2314
13.4872	988.5946	42.2607
13.4899	978.486	42.29
13.4928	986.907	42.3193
13.4953	979	42.3486
13.4965	984.25	42.37793
13.4997	977.525	42.4072
13.5023	982.078	42.4365
13.5043	982.774	42.46582
13.507	982.011	42.4951
13.5088	983.434	42.5244
13.5122	978.558	42.5537
13.5148	986.237	42.583
13.5157	976.254	42.6123
13.5187	982.167	42.6416
13.5222	978.037	42.6709
13.5252	986.3974	42.7002
13.5264	973.826	42.7295
13.5279	981.331	42.7588
13.5314	978.409	42.7881
13.5339	983.2879	42.8174
13.5358	976.769	42.84668
13.5385	979.74	42.876
13.5409	981.228	42.9053
13.5434	977.297	42.93457
13.547	979.991	42.9639
13.5487	975.963	42.9932
13.5508	985.313	43.0225
13.5528	974.524	43.0518
13.55677	982.245	43.0811
13.5577	972.947	43.1104
13.5614	983.471	43.1396
13.5631	972.734	43.1689
13.5659	981.097	43.1982
13.5682	973.245	43.2275
13.5714	977.711	43.2568
13.57337	971.273	43.2861
13.5759	975.535	43.31543
13.5781	972.858	43.3447
13.5806	971.702	43.374
13.58294	974.222	43.40332
13.5853	969.974	43.4326
13.5868	971.6839	43.4619
13.5894	960.847	43.4912
13.592	967.718	43.5205
13.6032	-45.9072	43.5498
13.6012	-40.8291	43.5791
13.6011	-51.8664	43.6084
13.603	-35.2943	43.6377
13.6047	-44.9584	43.667
13.6082	-37.3283	43.6963
13.6102	-46.32579	43.7256
13.6129	-37.0921	43.7549
13.6159	-43.6371	43.78418
13.6177	-41.1816	43.8135
13.6205	-43.6054	43.8428
13.6219	-42.2627	43.87207
13.6249	-39.2216	43.9014
13.6273	-46.2806	43.9307
13.6303	-39.5147	43.96
13.6325	-44.2013	43.9893
13.63521	-39.1899	44.0186
13.6372	-47.8469	44.0479
13.6397	-34.452	44.0771
13.6413	-43.5287	44.1064
13.6447	-36.8459	44.1357
13.6468	-46.31443	44.165
13.6493	-37.1615	44.1943
13.6516	-44.4802	44.2236
13.6529	-37.2767	44.25293
13.6557	-41.212	44.2822
13.6587	-39.6159	44.3115
13.6613	-42.7385	44.34082
13.6642	-43.4366	44.3701
13.66668	-37.5388	44.3994
13.6678	-43.1198	44.4287
13.6704	-37.6372	44.458
13.67293	-45.5856	44.4873
13.67627	-35.3564	44.5166
13.6783	-47.0441	44.5459
13.6799	-40.3077	44.5752
13.6832	-43.902	44.6045
13.6856	-34.6053	44.6338
13.6885	-45.4742	44.6631
13.6904	-42.3338	44.6924
13.6931	-44.77322	44.72168
13.6959	-41.0021	44.751
13.6974	-40.3341	44.7803
13.7001	-42.7245	44.80957
13.703	-38.3098	44.8389
13.70493	-44.247	44.8682
13.7072	-40.608	44.8975
13.7092	-47.5847	44.9268
13.7117	-34.931	44.9561
13.7146	-46.73497	44.9854
13.71763	-37.43824	45.0146
13.7194	-45.39576	45.0439
13.7219	-37.8898	45.0732
13.7248	-46.67355	45.1025
13.727	-39.92868	45.1318
13.72866	-43.6053	45.1611
13.732	-39.0603	45.19043
13.7341	-42.2384	45.2197
13.7367	-42.96373	45.249
13.7399	-39.1761	45.27832
13.7415	-45.3999	45.3076
13.7446	-36.7664	45.3369
13.7483	-44.4539	45.3662
13.7498	-36.0955	45.3955
13.7512	-49.584	45.4248
13.7539	-35.951	45.4541
13.757	-47.9225	45.4834
13.7592	-35.3963	45.5127
13.7616	-47.8981	45.542
13.7644	-35.8946	45.5713
13.7657	-44.6227	45.6006
13.769	-40.02565	45.6299
13.7713	-45.9317	45.65918
13.7732	-36.9764	45.6885
13.7756	-41.4859	45.7178
13.7785	-43.2304	45.74707
13.7811	-42.0214	45.7764
13.7831	-43.5905	45.8057
13.7862	-40.3101	45.835
13.78738	-46.3525	45.8643
13.7906	-36.8602	45.8936
13.7924	-44.5919	45.9229
13.7949	-37.7287	45.9521
13.7971	-48.97979	45.9814
13.7995	-37.518	46.0107
13.8019	-44.266	46.04
13.8048	-38.1978	46.0693
13.8069	-46.02911	46.0986
13.8092	-38.6959	46.12793
13.8126	-43.6607	46.1572
13.8151	-42.1947	46.1865
13.8191	-40.5533	46.21582
13.8201	-41.277	46.2451
13.8214	-39.0945	46.2744
13.8239	-47.4729	46.2939