File: data/processed_data_files/tensile/0.254_hd_dimension_typei_4545_r(5).dat
MTS793|BTW|ENU|1|2|.|/|:|1|0|0|A

Data Header:			0.254_hd_dimension_typei_4545_r0			Time:	20.0247	s	4/15/2019 3:18:09 PM
Data Acquisition:	Timed
Station Name:	ft40.cfg
Test File Name:	monotonic_0.2540_typei_hd_4545_dimension.tst
Displacement	Force	Running Time
mm	N	s
9.98137	-163.72	0.0297852
9.98205	-163.82	0.0981445
9.98817	-163.334	0.166504
9.99302	-166.0519	0.234863
9.99999	-165.3223	0.303223
10.0049	-165.7915	0.371582
10.0117	-165.744	0.439941
10.0162	-161.518	0.508301
10.022	-154.378	0.57666
10.0283	-147.301	0.64502
10.03304	-141.867	0.713379
10.0394	-139.4738	0.781738
10.0435	-138.033	0.850098
10.0505	-138.143	0.918457
10.0563	-139.411	0.986816
10.0611	-137.943	1.05518
10.0677	-142.869	1.12354
10.0737	-138.975	1.19189
10.0782	-129.794	1.26025
10.0846	-123.084	1.32861
10.09	-118.55	1.39697
10.0956	-111.235	1.465332
10.102	-109.281	1.53369
10.1079	-110.673	1.60205
10.1136	-107.212	1.67041
10.1193	-109.652	1.73877
10.1239	-113.39	1.80713
10.1287	-112.372	1.87549
10.1354	-102.194	1.94385
10.1415	-97.8694	2.012207
10.1475	-93.6086	2.08057
10.1534	-85.2567	2.14893
10.1593	-80.6309	2.21729
10.164	-80.0237	2.28564
10.1711	-78.52507	2.354
10.1756	-77.4275	2.42236
10.18114	-82.0172	2.49072
10.1859	-83.0647	2.559082
10.1927	-75.0519	2.62744
10.19755	-71.0287	2.6958
10.20457	-65.32991	2.76416
10.2089	-57.8622	2.83252
10.216	-53.2671	2.90088
10.2215	-47.3842	2.96924
10.2272	-44.2181	3.0376
10.2322	-45.6654	3.105957
10.23814	-48.9927	3.17432
10.2436	-49.5182	3.24268
10.249	-45.595	3.31104
10.2549	-42.05	3.37939
10.26102	-37.9049	3.44775
10.2672	-28.7871	3.51611
10.2724	-23.9066	3.58447
10.2791	-17.9846	3.652832
10.2837	-14.56939	3.72119
10.2887	-13.1856	3.78955
10.2944	-16.7334	3.85791
10.3004	-17.2712	3.92627
10.3068	-13.3278	3.99463
10.312	-11.3469	4.06299
10.3177	-6.92252	4.13135
10.32373	-1.32982	4.199707
10.3287	3.77804	4.26807
10.3344	13.7741	4.33643
10.3404	18.86068	4.40479
10.3458	20.4725	4.47314
10.3529	20.03396	4.5415
10.35803	19.8537	4.60986
10.3633	20.6872	4.67822
10.3702	20.3421	4.746582
10.37509	24.73686	4.81494
10.3799	28.4623	4.8833
10.3863	32.7331	4.95166
10.392	42.5045	5.02002
10.39689	50.5781	5.08838
10.4034	52.0375	5.15674
10.4097	50.6482	5.2251
10.4153	55.3282	5.293457
10.42131	54.955	5.36182
10.4262	53.5809	5.43018
10.4323	56.7419	5.49854
10.4384	61.1117	5.56689
10.4422	63.6066	5.63525
10.4488	72.1015	5.70361
10.4558	82.2936	5.77197
10.4595	83.0529	5.840332
10.46539	85.0498	5.90869
10.4727	89.9064	5.97705
10.4763	91.0051	6.04541
10.48233	87.6738	6.11377
10.488	88.2803	6.18213
10.4943	92.5556	6.25049
10.5004	94.8358	6.31885
10.5061	101.817	6.387207
10.51136	110.117	6.45557
10.5174	115.099	6.52393
10.5233	116.361	6.59229
10.528	121.016	6.66064
10.5345	125.444	6.729
10.5397	120.949	6.79736
10.5452	124.275	6.86572
10.5501	125.423	6.934082
10.5566	127.226	7.00244
10.5632	133.3	7.0708
10.5682	139.318	7.13916
10.5749	145.187	7.20752
10.5797	148.453	7.27588
10.5856	155.0051	7.34424
10.5907	158.795	7.4126
10.59659	157.373	7.480957
10.6036	155.484	7.54932
10.608	157.687	7.61768
10.6141	158.198	7.68604
10.6189	161.936	7.75439
10.6252	168.44	7.82275
10.6303	174.756	7.89111
10.6372	178.946	7.95947
10.6426	186.803	8.027832
10.6485	191.549	8.09619
10.6543	192.213	8.16455
10.6597	192.711	8.23291
10.66521	191.493	8.30127
10.6703	190.814	8.36963
10.67675	195.783	8.43799
10.6828	198.249	8.50635
10.6887	202.59	8.574707
10.6948	208.844	8.64307
10.699	218.214	8.71143
10.7058	222.994	8.77979
10.7103	226.043	8.84814
10.71652	226.362	8.9165
10.7216	226.984	8.98486
10.728	224.105	9.05322
10.7332	229.303	9.121582
10.7399	229.872	9.18994
10.7451	231.202	9.2583
10.7518	239.0835	9.32666
10.75645	250.108	9.39502
10.7615	253.956	9.46338
10.7677	257.583	9.53174
10.7728	260.42	9.6001
10.7788	260.612	9.668457
10.7837	257.699	9.73682
10.79	260.347	9.80518
10.7961	260.898	9.87354
10.8022	260.004	9.94189
10.8083	267.929	10.0103
10.8128	278.349	10.0786
10.8183	283.341	10.147
10.8247	289.432	10.2153
10.831	295.432	10.2837
10.8363	294.853	10.3521
10.8408	295.901	10.42041
10.8475	295.331	10.48877
10.8524	294.469	10.5571
10.8595	292.223	10.6255
10.8651	295.279	10.6938
10.87062	307.342	10.7622
10.876	310.817	10.8306
10.8819	318.002	10.8989
10.8875	325.817	10.9673
10.8922	329.1304	11.0356
10.8988	330.584	11.104
10.9042	327.685	11.1724
10.9106	326.867	11.2407
10.9162	323.9252	11.3091
10.9218	326.408	11.3774
10.9267	335.523	11.4458
10.9329	340.4	11.51416
10.9383	347.332	11.58252
10.9454	355.889	11.6509
10.9505	360.043	11.7192
10.9561	363.901	11.7876
10.96068	362.802	11.856
10.9661	361.043	11.9243
10.9734	355.904	11.9927
10.9786	355.708	12.061
10.9839	364.322	12.1294
10.9899	367.712	12.1978
10.9956	375.601	12.2661
11.0007	383.925	12.3345
11.006	387.893	12.4028
11.012	393.399	12.4712
11.0187	394.164	12.5396
11.0238	393.127	12.60791
11.0295	389.262	12.67627
11.0351	387.596	12.7446
11.0408	393.72	12.813
11.046	394.3031	12.8813
11.0526	402.561	12.9497
11.0575	412.084	13.0181
11.0647	415.326	13.0864
11.0702	422.772	13.1548
11.0746	425.16	13.2231
11.0808	424.513	13.2915
11.0865	421.138	13.3599
11.0914	420.218	13.4282
11.09761	424.201	13.4966
11.104	424.825	13.5649
11.1098	429.014	13.6333
11.1155	437.227	13.70166
11.121	443.522	13.77002
11.1267	451.37	13.8384
11.1322	457.15	13.9067
11.1384	455.969	13.9751
11.1437	454.2616	14.0435
11.14972	455.8	14.1118
11.1551	455.238	14.1802
11.161	453.762	14.2485
11.1664	458.449	14.3169
11.1722	464.546	14.3853
11.178	470.1362	14.4536
11.183	479.209	14.522
11.1889	485.59	14.5903
11.1949	484.8418	14.6587
11.20107	484.973	14.7271
11.20625	488.456	14.79541
11.21151	487.427	14.86377
11.2174	483.029	14.9321
11.2233	487.006	15.0005
11.22924	491.174	15.0688
11.2349	495.83	15.1372
11.2413	504.2348	15.2056
11.2461	511.862	15.2739
11.2513	514.4129	15.3423
11.25806	514.779	15.4106
11.263	519.649	15.479
11.2687	517.74	15.5474
11.2737	513.942	15.6157
11.2814	515.599	15.6841
11.2854	518.631	15.7524
11.2914	523.349	15.8208
11.2968	529.602	15.88916
11.3032	538.278	15.95752
11.3089	542.072	16.0259
11.3153	543.9436	16.0942
11.3202	547.468	16.1626
11.3262	548.4314	16.231
11.33135	546.728	16.2993
11.3381	545.454	16.3677
11.3437	547.012	16.436
11.3479	548.917	16.5044
11.35421	554.999	16.5728
11.3603	562.385	16.6411
11.3656	565.571	16.7095
11.3722	570.906	16.7778
11.3771	579.233	16.8462
11.3818	577.778	16.9146
11.38721	577.408	16.98291
11.3946	575.591	17.05127
11.4001	573.54	17.1196
11.40543	576.538	17.188
11.4113	580.193	17.2563
11.418	583.98	17.3247
11.4233	591.51	17.3931
11.4276	597.2547	17.4614
11.4334	605.3266	17.5298
11.4401	605.606	17.5981
11.4452	606.169	17.6665
11.45152	605.7926	17.7349
11.45728	600.418	17.8032
11.4625	602.965	17.8716
11.46827	605.225	17.9399
11.4737	608.974	18.0083
11.4807	613.0838	18.07666
11.4855	621.575	18.14502
11.49209	629.763	18.2134
11.496	631.187	18.2817
11.5029	633.5564	18.3501
11.5087	634.822	18.4185
11.5129	629.851	18.4868
11.52	629.149	18.5552
11.5253	631.259	18.6235
11.5304	633.768	18.6919
11.5368	634.82	18.7603
11.5431	644.2442	18.8286
11.5477	654.2569	18.897
11.5537	656.341	18.9653
11.5593	658.653	19.0337
11.5655	661.784	19.1021
11.5714	657.353	19.17041
11.57631	656.723	19.23877
11.5826	656.253	19.3071
11.5884	657.302	19.3755
11.5943	659.156	19.4438
11.5983	664.619	19.5122
11.6053	677.146	19.5806
11.6107	679.902	19.6489
11.6171	681.746	19.7173
11.6219	687.8313	19.7856
11.6274	686.854	19.854
11.6326	683.382	19.9224
11.63931	682.819	19.9907
11.6424	690.879	20.02002

Data Header:			0.254_hd_dimension_typei_4545_r0			Time:	40.0244	s	4/15/2019 3:18:29 PM
Data Acquisition:	Timed
Station Name:	ft40.cfg
Test File Name:	monotonic_0.2540_typei_hd_4545_dimension.tst
Displacement	Force	Running Time
mm	N	s
11.6422	697.173	20.0298
11.6481	697.959	20.0981
11.6535	694.659	20.1665
11.6594	697.688	20.2349
11.6661	692.9201	20.3032
11.6705	693.833	20.3716
11.6761	695.581	20.4399
11.6828	699.956	20.5083
11.6881	702.794	20.57666
11.6939	708.245	20.64502
11.6996	718.878	20.7134
11.7057	721.348	20.7817
11.7106	719.803	20.8501
11.7162	720.003	20.9185
11.7229	719.291	20.9868
11.7267	715.5838	21.0552
11.7336	718.0401	21.1235
11.7396	721.263	21.1919
11.7447	723.0882	21.2603
11.751	728.385	21.3286
11.7564	741.4411	21.397
11.7617	744.572	21.4653
11.76657	743.5	21.5337
11.7736	745.409	21.6021
11.7787	743.673	21.67041
11.7842	740.706	21.73877
11.7897	740.774	21.8071
11.7964	742.592	21.8755
11.802	741.584	21.9438
11.8075	746.572	22.0122
11.8132	758.177	22.0806
11.8191	764.149	22.1489
11.8254	765.323	22.2173
11.8311	769.3017	22.2856
11.83559	768.289	22.354
11.842	764.308	22.4224
11.8477	763.819	22.4907
11.8532	762.506	22.5591
11.8593	761.32	22.6274
11.8651	766.9259	22.6958
11.8699	774.506	22.76416
11.8765	781.084	22.83252
11.8815	785.73	22.9009
11.8873	790.042	22.9692
11.8931	790.48	23.0376
11.8989	789.681	23.106
11.9041	786.564	23.1743
11.9104	784.325	23.2427
11.9157	780.826	23.311
11.9213	785.09	23.3794
11.9273	792.834	23.4478
11.9327	797.249	23.5161
11.9386	801.97	23.5845
11.9446	808.171	23.6528
11.9486	808.087	23.7212
11.9556	810.271	23.7896
11.96156	808.374	23.85791
11.96731	805.064	23.92627
11.97296	801.199	23.9946
11.9797	803.067	24.063
11.9837	807.465	24.1313
11.9898	810.93	24.1997
11.9954	817.028	24.2681
12.0024	825.442	24.3364
12.0069	824.024	24.4048
12.0127	828.135	24.4731
12.0186	827.718	24.5415
12.0247	823.548	24.6099
12.02949	818.446	24.6782
12.0356	821.257	24.7466
12.0415	823.721	24.8149
12.04679	824.502	24.8833
12.0529	831.528	24.95166
12.0575	839.075	25.02002
12.0646	841.536	25.0884
12.06938	844.3847	25.1567
12.0752	844.828	25.2251
12.08066	841.028	25.2935
12.086	835.196	25.3618
12.0924	836.855	25.4302
12.098	838.734	25.4985
12.1047	838.976	25.5669
12.1094	842.879	25.6353
12.1148	850.107	25.7036
12.1211	855.356	25.772
12.127	859.412	25.8403
12.1318	861.216	25.9087
12.1379	859.4787	25.9771
12.1436	853.572	26.04541
12.1495	853.56	26.11377
12.15583	853.241	26.1821
12.16013	852.002	26.2505
12.16623	853.58	26.3188
12.1719	859.791	26.3872
12.1774	866.4256	26.4556
12.1842	870.786	26.5239
12.1892	874.505	26.5923
12.1957	872.938	26.6606
12.1993	869.005	26.729
12.2064	870.2019	26.7974
12.2126	867.033	26.8657
12.2177	863.775	26.9341
12.2231	866.191	27.0024
12.2299	869.002	27.0708
12.235	874.258	27.13916
12.2402	880.235	27.20752
12.2461	884.164	27.2759
12.2524	884.318	27.3442
12.2572	883.273	27.4126
12.2637	882.685	27.481
12.2692	879.634	27.5493
12.2748	876.765	27.6177
12.28073	876.447	27.686
12.2854	877.317	27.7544
12.2912	883.284	27.8228
12.2972	886.38	27.8911
12.3029	891.019	27.9595
12.30916	891.792	28.0278
12.3149	892.8512	28.0962
12.3205	895.531	28.1646
12.3265	889.981	28.23291
12.3319	886.907	28.30127
12.3368	885.539	28.3696
12.3439	884.294	28.438
12.3487	886.722	28.5063
12.3536	892.959	28.5747
12.3592	893.737	28.6431
12.3656	896.307	28.7114
12.3723	900.12	28.7798
12.3775	902.517	28.8481
12.3824	901.275	28.9165
12.3894	895.097	28.9849
12.3935	894.7	29.0532
12.4006	891.791	29.1216
12.406	890.72	29.1899
12.41272	897.45	29.2583
12.4162	899.546	29.32666
12.4227	899.844	29.39502
12.42936	904.543	29.4634
12.43471	910.661	29.5317
12.4402	906.495	29.6001
12.44566	902.773	29.6685
12.4521	902.3222	29.7368
12.4574	899.099	29.8052
12.462	896.966	29.8735
12.46881	901.148	29.9419
12.4736	904.668	30.0103
12.4789	902.914	30.0786
12.4859	908.834	30.147
12.4914	916.259	30.2153
12.4974	914.015	30.2837
12.5023	912.646	30.3521
12.5094	908.882	30.42041
12.5133	906.329	30.48877
12.5187	903.434	30.5571
12.5259	905.432	30.6255
12.5308	904.07	30.6938
12.5366	905.261	30.7622
12.5419	911.937	30.8306
12.5489	918.125	30.8989
12.5541	918.378	30.9673
12.559	919.399	31.0356
12.5653	914.6582	31.104
12.5709	912.077	31.1724
12.5763	909.851	31.2407
12.5829	908.152	31.3091
12.5874	907.496	31.3774
12.5936	908.562	31.4458
12.5994	914.228	31.51416
12.6062	919.95	31.58252
12.6108	921.626	31.6509
12.6167	923.771	31.7192
12.623	921.612	31.7876
12.628	917.845	31.856
12.634	916.15	31.9243
12.6392	912.534	31.9927
12.6443	909.588	32.061
12.6497	908.367	32.1294
12.6565	915.163	32.1978
12.6626	918.85	32.2661
12.6681	923.781	32.3345
12.6731	927.205	32.4028
12.68024	926.907	32.4712
12.6851	924.195	32.5396
12.6904	922.222	32.60791
12.6959	917.997	32.67627
12.7014	912.651	32.7446
12.7077	911.635	32.813
12.7136	916.691	32.8813
12.7197	918.948	32.9497
12.7249	922.176	33.0181
12.7305	927.93	33.0864
12.7374	928.706	33.1548
12.7413	928.534	33.2231
12.7481	926.264	33.2915
12.753	924.239	33.3599
12.7589	914.664	33.4282
12.7653	914.847	33.4966
12.7705	918.034	33.5649
12.7754	918.776	33.6333
12.7818	922.963	33.70166
12.7866	929.246	33.77002
12.7933	930.5636	33.8384
12.7986	931.918	33.9067
12.804	930.4129	33.9751
12.8102	928.812	34.0435
12.8158	920.341	34.1118
12.8217	918.457	34.1802
12.8272	921.15	34.2485
12.8326	919.98	34.3169
12.8385	922.594	34.3853
12.8452	929.395	34.4536
12.8501	930.593	34.522
12.8554	934.656	34.5903
12.86057	935.567	34.6587
12.8679	934.5	34.7271
12.8722	925.845	34.79541
12.8782	922.307	34.86377
12.884	923.766	34.9321
12.8899	920.8327	35.0005
12.8955	923.224	35.0688
12.9023	927.25	35.1372
12.908	930.273	35.2056
12.9123	935.494	35.2739
12.9184	935.759	35.3423
12.9243	934.834	35.4106
12.9289	930.492	35.479
12.9356	926.868	35.5474
12.9412	925.782	35.6157
12.9471	922.806	35.6841
12.952	924.901	35.7524
12.9581	927.221	35.8208
12.9641	929.596	35.88916
12.96968	933.132	35.95752
12.9747	937.743	36.0259
12.9807	936.524	36.0942
12.9863	933.046	36.1626
12.9931	932.494	36.231
12.9985	929.305	36.2993
13.0035	924.288	36.3677
13.0097	925.132	36.436
13.0155	925.112	36.5044
13.021	927.535	36.5728
13.0269	932.007	36.6411
13.0325	938.11	36.7095
13.0373	938.21	36.7778
13.0439	937.005	36.8462
13.0503	938.401	36.9146
13.055	932.86	36.98291
13.062	927.901	37.05127
13.0656	925.673	37.1196
13.072	926.231	37.188
13.0786	925.892	37.2563
13.0841	931.159	37.3247
13.08979	936.929	37.3931
13.0952	934.751	37.4614
13.1	936.5332	37.5298
13.107	939.711	37.5981
13.1112	936.7403	37.6665
13.1173	930.2652	37.7349
13.1229	930.4707	37.8032
13.1281	927.453	37.8716
13.1345	926.324	37.9399
13.14094	931.359	38.0083
13.146	936.239	38.07666
13.1531	934.878	38.14502
13.157	936.462	38.2134
13.1627	942.713	38.2817
13.1684	940.176	38.3501
13.1746	932.492	38.4185
13.1812	932.842	38.4868
13.1865	929.921	38.5552
13.1918	926.396	38.6235
13.1972	928.114	38.6919
13.20313	932.63	38.7603
13.2081	932.423	38.8286
13.2135	936.217	38.897
13.2212	942.703	38.9653
13.2262	941.562	39.0337
13.2311	937.451	39.1021
13.2371	935.748	39.17041
13.2439	932.121	39.23877
13.2486	929.474	39.3071
13.2552	928.094	39.3755
13.2598	929.995	39.4438
13.2659	930.297	39.5122
13.2717	933.879	39.5806
13.2763	942.043	39.6489
13.28252	942.244	39.7173
13.2882	940.379	39.7856
13.294	939.511	39.854
13.3007	934.3233	39.9224
13.3057	931.262	39.9907
13.3074	939.867	40.02002

Data Header:			0.254_hd_dimension_typei_4545_r0			Time:	60.0247	s	4/15/2019 3:18:49 PM
Data Acquisition:	Timed
Station Name:	ft40.cfg
Test File Name:	monotonic_0.2540_typei_hd_4545_dimension.tst
Displacement	Force	Running Time
mm	N	s
13.3101	937.278	40.0298
13.3145	942.233	40.0981
13.3206	939.609	40.1665
13.3262	932.895	40.2349
13.3311	930.093	40.3032
13.3372	931.051	40.3716
13.3428	928.367	40.4399
13.34895	932.646	40.5083
13.3545	935.494	40.57666
13.3603	937.502	40.64502
13.366	939.002	40.7134
13.3726	944.4895	40.7817
13.3773	943.439	40.8501
13.3837	937.583	40.9185
13.389	932.932	40.9868
13.3944	931.89	41.0552
13.3995	929.452	41.1235
13.4051	929.635	41.1919
13.4118	935.095	41.2603
13.4177	935.929	41.3286
13.4214	936.7132	41.397
13.4292	942.58	41.4653
13.4329	942.716	41.5337
13.4396	940.175	41.6021
13.44539	935.721	41.67041
13.4507	933.21	41.73877
13.4566	931.797	41.8071
13.46253	932.101	41.8755
13.4681	930.635	41.9438
13.474	933.35	42.0122
13.4795	936.853	42.0806
13.4842	944.032	42.1489
13.4914	942.0459	42.2173
13.4974	942.643	42.2856
13.5029	941.3537	42.354
13.5079	934.269	42.4224
13.5141	932.8291	42.4907
13.5195	930.745	42.5591
13.5254	929.39	42.6274
13.5307	927.847	42.6958
13.538	932.733	42.76416
13.5418	940.929	42.83252
13.5476	941.112	42.9009
13.5543	941.722	42.9692
13.5602	942.1908	43.0376
13.5638	935.874	43.106
13.5707	934.104	43.1743
13.57726	935.3324	43.2427
13.5819	929.369	43.311
13.5874	928.735	43.3794
13.594	931.156	43.4478
13.5995	938.21	43.5161
13.6046	939.943	43.5845
13.6105	941.962	43.6528
13.61548	942.154	43.7212
13.6222	937.945	43.7896
13.6279	938.96	43.85791
13.6339	934.738	43.92627
13.6396	930.465	43.9946
13.646	926.525	44.063
13.6508	930.064	44.1313
13.6566	936.076	44.1997
13.6621	937.976	44.2681
13.6683	940.934	44.3364
13.6731	944.602	44.4048
13.6785	941.597	44.4731
13.6853	940.936	44.5415
13.6905	938.736	44.6099
13.697	932.236	44.6782
13.7019	926.073	44.7466
13.7079	929.582	44.8149
13.7121	934.943	44.8833
13.7185	935.525	44.95166
13.7238	940.555	45.02002
13.73	943.666	45.0884
13.7355	943.362	45.1567
13.7407	944.08	45.2251
13.7475	939.369	45.2935
13.7525	933.979	45.3618
13.7587	929.072	45.4302
13.7644	931.885	45.4985
13.7706	933.594	45.5669
13.7755	932.293	45.6353
13.78129	938.447	45.7036
13.7876	942.948	45.772
13.7931	944.016	45.8403
13.7994	943.119	45.9087
13.8051	941.99	45.9771
13.81135	936.943	46.04541
13.81534	931.276	46.11377
13.8214	932.602	46.1821
13.8283	930.95	46.2505
13.83215	932.76	46.3188
13.8391	934.727	46.3872
13.8432	939.448	46.4556
13.8503	942.854	46.5239
13.8559	945.627	46.5923
13.8609	943.477	46.6606
13.8668	937.837	46.729
[...]
14.3968	941.701	53.0864
14.4021	944.147	53.1548
14.40849	943.262	53.2231
14.4146	938.564	53.2915
14.4195	938.825	53.3599
14.4252	933.463	53.4282
14.4314	926.629	53.4966
14.4369	930.201	53.5649
14.4428	934.927	53.6333
14.4478	936.561	53.70166
14.4536	937.838	53.77002
14.4601	944.771	53.8384
14.46514	944.695	53.9067
14.4705	943.112	53.9751
14.4763	941.992	54.0435
14.4832	934.957	54.1118
14.4888	927.511	54.1802
14.49453	929.797	54.2485
14.5001	934.203	54.3169
14.5054	934.511	54.3853
14.5113	937.28	54.4536
14.51717	942.599	54.522
14.5222	943.867	54.5903
14.527	943.628	54.6587
14.5337	942.679	54.7271
14.5394	937.964	54.79541
14.5449	930.964	54.86377
14.5505	929.726	54.9321
14.5562	932.871	55.0005
14.5626	932.19	55.0688
14.5685	936.116	55.1372
14.5746	937.985	55.2056
14.5788	943.414	55.2739
14.5842	944.738	55.3423
14.5921	943.02	55.4106
14.5968	938.74	55.479
14.6018	934.881	55.5474
14.6075	933.48	55.6157
14.6132	932.233	55.6841
14.619	931.61	55.7524
14.6248	934.767	55.8208
14.631	938.659	55.88916
14.6367	941.321	55.95752
14.6428	945.144	56.0259
14.6478	945.175	56.0942
14.6536	942.5025	56.1626
14.6595	937.204	56.231
14.6649	936.016	56.2993
14.671	932.518	56.3677
14.6757	930.8255	56.436
14.6822	932.902	56.5044
14.68831	933.916	56.5728
14.6934	937.83	56.6411
14.6999	943.691	56.7095
14.70496	945.087	56.7778
14.7111	941.119	56.8462
14.7167	939.805	56.9146
14.72203	939.339	56.98291
14.72713	933.408	57.05127
14.7331	929.92	57.1196
14.7388	932.417	57.188
14.7445	932.998	57.2563
14.7496	935.493	57.3247
14.7559	941.948	57.3931
14.7622	944.425	57.4614
14.7679	942.091	57.5298
14.773	940.481	57.5981
14.7791	942.579	57.6665
14.7847	936.451	57.7349
14.7898	930.609	57.8032
14.79557	931.529	57.8716
14.8018	930.704	57.9399
14.8075	931.696	58.0083
14.8135	938.607	58.07666
14.8184	941.937	58.14502
14.8236	940.3515	58.2134
14.8292	942.111	58.2817
14.8359	945.266	58.3501
14.8413	940.27	58.4185
14.84716	933.733	58.4868
14.8527	933.824	58.5552
14.8589	930.903	58.6235
14.864	931.635	58.6919
14.8708	932.6358	58.7603
14.8756	937.125	58.8286
14.8803	938.911	58.897
14.8866	941.062	58.9653
14.8942	944.338	59.0337
14.8984	942.892	59.1021
14.9042	936.164	59.17041
14.9092	933.354	59.23877
14.9152	930.235	59.3071
14.9213	930.0954	59.3755
14.9269	932.675	59.4438
14.9325	933.887	59.5122
14.9386	936.353	59.5806
14.944	939.424	59.6489
14.9496	946.148	59.7173
14.9552	941.673	59.7856
14.961	938.645	59.854
14.967	935.8775	59.9224
14.9724	932.939	59.9907
14.9752	939.104	60.02002

Data Header:			0.254_hd_dimension_typei_4545_r0			Time:	71.9385	s	4/15/2019 3:19:01 PM
Data Acquisition:	Timed
Station Name:	ft40.cfg
Test File Name:	monotonic_0.2540_typei_hd_4545_dimension.tst
Displacement	Force	Running Time
mm	N	s
14.9757	941.3009	60.0298
14.9799	937.709	60.0786
14.9837	930.334	60.1274
14.9876	933.286	60.17627
14.992	942.193	60.2251
14.9965	940.246	60.2739
15.0004	932.387	60.3228
15.0037	931.0896	60.3716
15.0088	936.727	60.42041
15.0127	943.073	60.4692
15.016	939.365	60.5181
15.021	932.314	60.5669
15.0249	931.445	60.6157
15.0294	939.228	60.6646
15.032	941.077	60.7134
15.0365	934.6825	60.7622
15.041	930.4173	60.811
15.0448	936.586	60.8599
15.0484	941.997	60.9087
15.0527	937.8042	60.95752
15.0564	929.469	61.0063
15.0626	930.75	61.0552
15.0648	939.26	61.104
15.0698	942.868	61.1528
15.0737	936.178	61.20166
15.0781	930.73	61.2505
15.0821	934.918	61.2993
15.0856	940.69	61.3481
15.0889	937.513	61.397
15.0937	931.282	61.4458
15.0971	932.509	61.4946
15.1021	939.953	61.5435
15.1055	943.432	61.5923
15.10984	936.523	61.6411
15.113	929.367	61.6899
15.1183	933.284	61.73877
15.1219	941.241	61.7876
15.1248	940.871	61.8364
15.1307	933.571	61.8853
15.1343	929.849	61.9341
15.1385	936.05	61.98291
15.1419	938.611	62.0317
15.14712	934.539	62.0806
15.15	929.149	62.1294
15.1547	934.122	62.1782
15.1598	942.931	62.2271
15.163	944.088	62.2759
15.1676	933.345	62.3247
15.1702	929.201	62.3735
15.1747	936.971	62.4224
15.1796	943.2652	62.4712
15.1819	938.769	62.52002
15.1869	931.218	62.5688
15.1904	933.792	62.6177
15.1955	938.872	62.6665
15.2001	940.152	62.7153
15.2045	933.413	62.76416
15.2075	928.593	62.813
15.2118	933.954	62.8618
15.21566	943.133	62.9106
15.21898	941.231	62.9595
15.2237	931.299	63.0083
15.228	929.982	63.0571
15.2323	940.309	63.106
15.2363	944.06	63.1548
15.2402	937.702	63.2036
15.2435	928.348	63.2524
15.2488	933.728	63.30127
15.25253	942.244	63.3501
15.257	938.485	63.3989
15.2614	929.4325	63.4478
15.2648	927.021	63.4966
15.2693	937.647	63.54541
15.2724	944.727	63.5942
15.2765	938.268	63.6431
15.2808	931.32	63.6919
15.2857	931.619	63.7407
15.2889	941.115	63.7896
15.2926	942.519	63.8384
15.2977	933.89	63.8872
15.3018	928.641	63.936
15.3053	935.238	63.9849
15.3101	942.707	64.0337
15.3142	935.343	64.08252
15.31677	925.811	64.1313
15.3221	927.54	64.1802
15.3257	938.825	64.229
15.3294	943.368	64.2778
15.333	935.457	64.32666
15.337	927.4303	64.3755
15.3414	932.915	64.4243
15.3465	941.057	64.4731
15.3494	937.984	64.522
15.35485	929.163	64.5708
15.35819	928.447	64.6196
15.3626	938.23	64.6685
15.3668	945.227	64.7173
15.3705	935.096	64.7661
15.3749	926.658	64.8149
15.3796	929.1236	64.86377
15.3823	941.775	64.9126
15.3866	941.955	64.9614
15.3908	929.781	65.0103
15.3941	928.149	65.0591
15.3985	934.612	65.10791
15.4035	941.254	65.1567
15.4065	936.83	65.2056
15.4104	926.844	65.2544
15.4152	929.814	65.3032
15.4198	943.894	65.3521
15.423	943.768	65.4009
15.42755	931.153	65.4497
15.432	924.985	65.4985
15.4351	934.633	65.5474
15.4397	942.688	65.5962
15.4439	940.179	65.64502
15.44826	929.546	65.6938
15.452	929.16	65.7427
15.4555	939.077	65.7915
15.4604	940.638	65.8403
15.4645	933.745	65.88916
15.4679	926.1673	65.938
15.4719	932.601	65.9868
15.47622	941.748	66.0356
15.4798	940.167	66.0845
15.4845	927.499	66.1333
15.4878	925.935	66.1821
15.4931	936.019	66.231
15.4961	943.288	66.2798
15.4999	935.624	66.3286
15.5045	927.574	66.3774
15.509	931.5	66.42627
15.5134	939.518	66.4751
15.5171	939.002	66.5239
15.521	930.689	66.5728
15.52495	924.651	66.6216
15.5302	933.115	66.67041
15.53203	941.298	66.7192
15.53815	936.617	66.7681
15.5421	925.471	66.8169
15.5448	925.473	66.8657
15.5494	937.8634	66.9146
15.5534	940.943	66.9634
15.5573	932.569	67.0122
15.5608	927.664	67.061
15.5658	933.255	67.1099
15.5698	941.061	67.1587
15.5741	938.547	67.20752
15.5782	927.136	67.2563
15.5812	927.352	67.3052
15.5855	935.264	67.354
15.58908	940.71	67.4028
15.5946	932.491	67.45166
15.5982	922.163	67.5005
15.60215	927.547	67.5493
15.60758	936.991	67.5981
15.6104	938.295	67.647
15.6145	930.187	67.6958
15.6178	928.594	67.7446
15.6229	937.398	67.7935
15.6267	940.796	67.8423
15.6308	935.452	67.8911
15.6341	927.79	67.9399
15.639	928.89	67.98877
15.6431	938.055	68.0376
15.6464	940.673	68.0864
15.6496	929.138	68.1353
15.6554	923.396	68.1841
15.6598	930.47	68.23291
15.6624	936.6275	68.2817
15.6675	934.969	68.3306
15.6712	927.306	68.3794
15.6757	927.769	68.4282
15.6796	936.358	68.4771
15.6839	938.011	68.5259
15.68755	931.277	68.5747
15.6914	926.8089	68.6235
15.6961	931.107	68.6724
15.6999	939.267	68.7212
15.7047	937.742	68.77002
15.7079	928.576	68.8188
15.7124	924.368	68.8677
15.7159	931.736	68.9165
15.7208	935.416	68.9653
15.7245	928.381	69.01416
15.7295	923.3728	69.063
15.7321	928.818	69.1118
15.7364	937.625	69.1606
15.7411	932.684	69.2095
15.7444	924.7373	69.2583
15.7488	924.151	69.3071
15.7525	930.356	69.356
15.7566	934.811	69.4048
15.766	-234.441	69.4536
15.7683	-48.60709	69.5024
15.7698	-47.1062	69.55127
15.7751	-38.0477	69.6001
15.7774	-38.8465	69.6489
15.78179	-46.113	69.6978
15.78586	-50.9463	69.7466
15.7905	-41.9955	69.79541
15.7948	-34.8324	69.8442
15.797	-42.1741	69.8931
15.8014	-50.9946	69.9419
15.8062	-48.7834	69.9907
15.8104	-37.1667	70.0396
15.8149	-36.2829	70.0884
15.819	-45.326	70.1372
15.8221	-49.3324	70.186
15.8265	-45.0884	70.2349
15.83	-38.6419	70.2837
15.8351	-42.5366	70.33252
15.8385	-48.2906	70.3813
15.8424	-47.2078	70.4302
15.8474	-37.3247	70.479
15.8513	-35.9114	70.5278
15.8548	-45.6178	70.57666
15.85828	-50.0768	70.6255
15.8632	-46.11908	70.6743
15.8661	-38.0434	70.7231
15.8704	-39.0322	70.772
15.8745	-49.1518	70.8208
15.8792	-48.3849	70.8696
15.8825	-40.4015	70.9185
15.8874	-38.9932	70.9673
15.8922	-44.499	71.0161
15.8953	-51.4966	71.0649
15.8989	-44.387	71.11377
15.9047	-35.12291	71.1626
15.9078	-36.5684	71.2114
15.9116	-47.73922	71.2603
15.9166	-50.0535	71.3091
15.9203	-42.596	71.35791
15.9235	-38.0749	71.4067
15.9283	-42.8998	71.4556
15.9323	-49.7034	71.5044
15.9362	-47.7787	71.5532
15.9395	-40.4116	71.6021
15.94408	-41.56448	71.6509
15.9488	-48.07653	71.6997
15.9527	-52.5767	71.7485
15.95634	-42.2542	71.7974
15.9606	-36.555	71.8462
15.964	-39.2253	71.89502
15.9683	-54.5785	71.9341