File: data/processed_data_files/tensile/0.254_solid_uprint_typei_090_r(3).dat
MTS793|BTW|ENU|1|2|.|/|:|1|0|0|A

Data Header:			0.254_solid_uprint_typei_090_r0			Time:	20.0178	s	4/15/2019 2:53:37 PM
Data Acquisition:	Timed
Station Name:	ft40.cfg
Test File Name:	monotonic_0.2540_typei_solid_090_uprint.tst
Displacement	Force	Running Time
mm	N	s
9.98133	-163.64	0.0227051
9.98434	-158.74	0.0910645
9.99028	-159.7291	0.159424
9.99432	-155.189	0.2277832
10.0006	-145.21	0.296143
10.0075	-142.73	0.364502
10.0125	-134.086	0.432861
10.0187	-127.926	0.5012207
10.0241	-126.347	0.56958
10.0295	-128.658	0.637939
10.0354	-125.542	0.706299
10.0418	-122.1982	0.7746582
10.0466	-121.874	0.843018
10.0529	-119.474	0.911377
10.0578	-110.483	0.979736
10.0646	-106.108	1.0481
10.0705	-98.4231	1.11646
10.0749	-91.982	1.18481
10.0815	-88.6665	1.25317
10.0866	-86.7633	1.32153
10.0921	-83.8481	1.38989
10.0988	-81.5164	1.458252
10.104	-83.5294	1.52661
10.11	-79.959	1.59497
10.1151	-74.8923	1.66333
10.1209	-68.5064	1.73169
10.1268	-62.3317	1.80005
10.1328	-56.0555	1.86841
10.1389	-52.1432	1.93677
10.1445	-48.2239	2.005127
10.1505	-43.7803	2.07349
10.1548	-43.797	2.14185
10.1614	-42.79097	2.21021
10.1665	-39.84449	2.27856
10.1711	-37.5914	2.34692
10.1777	-32.3767	2.41528
10.1842	-24.0032	2.48364
10.1908	-18.3106	2.552002
10.1953	-15.2989	2.62036
10.2012	-10.6893	2.68872
10.2063	-4.464891	2.75708
10.2111	-2.88475	2.82544
10.21807	-3.116163	2.8938
10.2237	0.968154	2.96216
10.22894	2.43465	3.03052
10.2357	4.09788	3.098877
10.2414	11.1897	3.16724
10.2462	19.2133	3.2356
10.2525	20.5072	3.30396
10.2582	27.087	3.37231
10.2636	36.3817	3.44067
10.2695	37.9494	3.50903
10.27474	36.8811	3.57739
10.2804	41.0839	3.645752
10.2869	43.165	3.71411
10.2916	43.3709	3.78247
10.2977	48.4147	3.85083
10.3038	58.0583	3.91919
10.3087	61.1748	3.98755
10.3149	64.2049	4.05591
10.3206	73.71685	4.12427
10.3261	80.5161	4.192627
10.3319	78.5995	4.26099
10.3378	82.1554	4.32935
10.34294	83.7222	4.39771
10.3491	83.3067	4.46606
10.3548	87.42543	4.53442
10.3608	93.7793	4.60278
10.36553	97.8347	4.67114
10.3704	102.088	4.739502
10.3773	111.469	4.80786
10.3836	118.714	4.87622
10.389	119.959	4.94458
10.3938	122.569	5.01294
10.3992	123.869	5.0813
10.4063	124.072	5.14966
10.4117	127.288	5.21802
10.4165	132.055	5.286377
10.4232	133.977	5.35474
10.4288	140.095	5.4231
10.4348	147.4563	5.49146
10.4401	155.228	5.55981
10.4451	160.384	5.62817
10.451	161.532	5.69653
10.4584	164.5049	5.76489
10.4629	163.765	5.833252
10.4686	166.348	5.90161
10.4743	168.259	5.96997
10.4793	170.388	6.03833
10.4849	176.852	6.10669
10.4913	185.306	6.17505
10.4973	192.599	6.24341
10.502	197.321	6.31177
10.50927	203.044	6.380127
10.5143	204.532	6.44849
10.5199	206.361	6.51685
10.5255	206.746	6.58521
10.5302	208.365	6.65356
10.5372	208.335	6.72192
10.5429	213.151	6.79028
10.54792	222.612	6.85864
10.5543	229.86	6.927002
10.5601	232.157	6.99536
10.5661	241.595	7.06372
10.5711	244.663	7.13208
10.5769	245.538	7.20044
10.5826	246.973	7.2688
10.5881	248.016	7.33716
10.5941	246.6479	7.40552
10.599	248.876	7.473877
10.6045	258.3067	7.54224
10.6101	266.298	7.6106
10.6165	269.997	7.67896
10.6226	277.122	7.74731
10.6291	284.105	7.81567
10.6336	286.261	7.88403
10.63852	287.492	7.95239
10.6451	289.933	8.020752
10.6509	287.412	8.08911
10.6574	287.328	8.15747
10.6625	293.8765	8.22583
10.6678	302.007	8.29419
10.6737	305.051	8.36255
10.6794	314.565	8.43091
10.6842	322.073	8.49927
10.6909	323.098	8.567627
10.6966	326.628	8.63599
10.7016	329.338	8.70435
10.7083	325.634	8.77271
10.7136	325.386	8.84106
10.7194	330.937	8.90942
10.72545	336.882	8.97778
10.7301	341.4364	9.04614
10.7369	349.114	9.114502
10.74154	356.47	9.18286
10.7476	363.907	9.25122
10.752	366.789	9.31958
10.7593	367.159	9.38794
10.7647	366.075	9.4563
10.7706	365.095	9.52466
10.7749	368.435	9.59302
10.7816	373.317	9.661377
10.7872	377.919	9.72974
10.7925	384.7543	9.7981
10.7987	392.818	9.86646
10.8037	399.044	9.93481
10.8101	403.7363	10.0032
10.8159	407.478	10.0715
10.8208	404.5	10.1399
10.827	405.226	10.2083
10.8327	407.1015	10.2766
10.8394	408.138	10.345
10.8439	412.315	10.41333
10.8507	421.153	10.4817
10.8556	426.685	10.55
10.8617	433.716	10.6184
10.8663	441.501	10.6868
10.8733	444.519	10.7551
10.8784	443.582	10.8235
10.8842	443.2233	10.8918
10.8896	446.852	10.9602
10.8953	448.234	11.0286
10.9017	447.9119	11.0969
10.90602	454.349	11.1653
10.9118	459.926	11.2336
10.918	465.899	11.302
10.9239	475.422	11.3704
10.92985	482.0033	11.4387
10.9342	480.627	11.50708
10.9414	480.03	11.5754
10.9468	485.143	11.6438
10.9522	487.056	11.7122
10.9576	483.58	11.7805
10.9649	488.547	11.8489
10.9687	494.924	11.9172
10.9754	500.953	11.9856
10.9817	507.529	12.054
10.9868	516.851	12.1223
10.9925	518.096	12.1907
10.9973	519.612	12.259
11.0039	522.642	12.3274
11.0095	523.776	12.3958
11.0146	520.951	12.4641
11.0203	522.36	12.5325
11.0266	529.11	12.60083
11.0323	536.386	12.6692
11.0375	540.621	12.7375
11.0437	549.103	12.8059
11.0495	553.164	12.8743
11.0558	553.35	12.9426
11.06	559.23	13.011
11.0662	560.096	13.0793
11.0721	557.668	13.1477
11.0773	558.995	13.2161
11.0842	562.629	13.2844
11.0896	568.185	13.3528
11.0944	575.182	13.4211
11.0996	581.4884	13.4895
11.1066	585.908	13.5579
11.11173	590.965	13.6262
11.1176	595.453	13.69458
11.1238	597.834	13.7629
11.1291	595.724	13.8313
11.1355	597.509	13.8997
11.13954	598.1795	13.968
11.1458	601.023	14.0364
11.1521	607.58	14.1047
11.1568	613.506	14.1731
11.1631	617.363	14.2415
11.169	623.136	14.3098
11.175	631.118	14.3782
11.18	632.243	14.4465
11.1856	632.7276	14.5149
11.1921	632.874	14.5833
11.1977	632.086	14.6516
11.20326	634.026	14.72
11.2086	639.371	14.78833
11.21454	645.496	14.8567
11.2187	647.604	14.925
11.2251	654.63	14.9934
11.2314	664.039	15.0618
11.2364	666.647	15.1301
11.2421	668.3913	15.1985
11.248	668.763	15.2668
11.2536	668.445	15.3352
11.2599	667.218	15.4036
11.2656	670.473	15.4719
11.2707	676.95	15.5403
11.277	680.8067	15.6086
11.2832	684	15.677
11.288	694.953	15.7454
11.2949	701.033	15.8137
11.3005	700.078	15.88208
11.3056	702.919	15.9504
11.3104	704.8692	16.0188
11.317	702.955	16.0872
11.322	704.369	16.1555
11.3283	706.99	16.2239
11.3339	710.148	16.2922
11.3405	715.065	16.3606
11.3456	725.438	16.429
11.3521	731.087	16.4973
11.3564	733.804	16.5657
11.3617	735.72	16.634
11.3683	738.406	16.7024
11.3748	738.235	16.7708
11.3789	736.517	16.8391
11.3853	738.562	16.9075
11.3901	738.941	16.97583
11.3967	744.819	17.0442
11.4028	753.627	17.1125
11.4079	761.309	17.1809
11.4135	764.998	17.2493
11.4191	769.439	17.3176
11.4245	770.782	17.386
11.4317	770.901	17.4543
11.4361	771.029	17.5227
11.4423	770.4024	17.5911
11.4478	769.331	17.6594
11.4542	774.415	17.7278
11.4585	780.755	17.7961
11.4644	787.773	17.8645
11.4708	793.9	17.9329
11.476	799.9	18.0012
11.48176	802.689	18.06958
11.4879	801.623	18.1379
11.4939	803.8407	18.2063
11.4986	802.564	18.2747
11.5051	800.609	18.343
11.5104	802.324	18.4114
11.5163	809.203	18.4797
11.5222	814.18	18.5481
11.5277	820.897	18.6165
11.5337	828.589	18.6848
11.538	831.6059	18.7532
11.5453	830.904	18.8215
11.5503	833.5813	18.8899
11.5557	833.24	18.9583
11.5638	827.875	19.0266
11.5679	828.441	19.095
11.57255	836.033	19.16333
11.57875	840.026	19.2317
11.5843	845.36	19.3
11.5899	854.263	19.3684
11.5959	859.484	19.4368
11.6015	859.911	19.5051
11.6073	862.865	19.5735
11.613	863.048	19.6418
11.6192	856.67	19.7102
11.6241	856.247	19.7786
11.6306	862.711	19.8469
11.63584	865.6333	19.9153
11.6414	868.021	19.9836
11.6452	876.17	20.0129

Data Header:			0.254_solid_uprint_typei_090_r0			Time:	29.741	s	4/15/2019 2:53:47 PM
Data Acquisition:	Timed
Station Name:	ft40.cfg
Test File Name:	monotonic_0.2540_typei_solid_090_uprint.tst
Displacement	Force	Running Time
mm	N	s
11.6448	871.5611	20.0227
11.648	877.896	20.0618
11.6508	871.233	20.10083
11.6546	882.167	20.1399
11.6592	879.337	20.179
11.6603	876.352	20.218
11.6635	888.751	20.25708
11.6672	881.97	20.2961
11.6702	881.838	20.3352
11.6737	894.568	20.3743
11.677	882.707	20.41333
11.6813	891.68	20.4524
11.6836	895.184	20.4915
11.6869	886.4176	20.5305
11.6891	900.096	20.56958
11.6932	893.536	20.6086
11.6966	896.608	20.6477
11.7001	903.42	20.6868
11.7042	895.467	20.72583
11.707	901.975	20.7649
11.7099	904.052	20.804
11.7132	896.82	20.843
11.7157	910.337	20.88208
11.71828	903.226	20.9211
11.7232	902.509	20.9602
11.7271	915.04	20.9993
11.7286	901.574	21.03833
11.7333	911.682	21.0774
11.7347	913.749	21.1165
11.7393	906.655	21.1555
11.7424	917.466	21.19458
11.7454	913.969	21.2336
11.7488	915.277	21.2727
11.7524	921.223	21.3118
11.756	913.676	21.35083
11.759	922.204	21.3899
11.7615	922.216	21.429
11.7654	915.396	21.468
11.7685	931.178	21.50708
11.7722	920.376	21.5461
11.7742	923.792	21.5852
11.7775	936.451	21.6243
11.7809	920.667	21.66333
11.7854	934.242	21.7024
11.789	933.712	21.7415
11.792	927.016	21.7805
11.7951	938.7655	21.81958
11.7971	934.034	21.8586
11.7997	933.113	21.8977
11.8049	942.346	21.9368
11.8075	933.394	21.97583
11.811	941.414	22.0149
11.8137	942.607	22.054
11.8169	933.56	22.093
11.82	948.598	22.13208
11.82372	939.165	22.1711
11.8272	940.377	22.2102
11.8296	948.825	22.2493
11.8338	939.0517	22.28833
11.8362	946.258	22.3274
11.8406	948.915	22.3665
11.843	941.078	22.4055
11.8468	951.714	22.44458
11.8501	947.619	22.4836
11.853	947.88	22.5227
11.8562	955.569	22.5618
11.8587	944.854	22.60083
11.8626	956.755	22.6399
11.8663	953.332	22.679
11.8696	948.867	22.718
11.8722	960.2699	22.75708
11.8757	950.2088	22.7961
11.8793	953.869	22.8352
11.8829	963.857	22.8743
11.88609	952.465	22.91333
11.8881	961.223	22.9524
11.8924	963.861	22.9915
11.8951	953.784	23.0305
11.8978	967.688	23.06958
11.9023	960.542	23.1086
11.9044	959.298	23.1477
11.9079	970.112	23.1868
11.9117	959.4892	23.22583
11.9157	969.137	23.2649
11.91817	966.386	23.304
11.9211	962.337	23.343
11.9247	971.92	23.38208
11.9273	966.149	23.4211
11.93154	963.75	23.4602
11.93442	974.401	23.4993
11.9391	962.711	23.53833
11.9404	969.135	23.5774
11.944	972.375	23.6165
11.94804	963.114	23.6555
11.9508	974.152	23.69458
11.9539	967.914	23.7336
11.9576	969.239	23.7727
11.9608	973.4295	23.8118
11.96346	964.652	23.85083
11.9672	974.033	23.8899
11.9713	970.752	23.929
11.9739	966.573	23.968
11.97717	978.86	24.00708
11.9796	967.832	24.0461
11.9841	970.976	24.0852
11.9868	980.315	24.1243
11.99	964.438	24.16333
11.9945	975.724	24.2024
11.997	976.9884	24.2415
12.00018	967.091	24.2805
12.00287	980.732	24.31958
12.0057	974.274	24.3586
12.0089	971.918	24.3977
12.0131	981.631	24.4368
12.0154	972.367	24.47583
12.0192	976.246	24.5149
12.0234	978.219	24.554
12.0265	971.3371	24.593
12.02884	981.437	24.63208
12.03242	974.492	24.6711
12.0365	972.88	24.7102
12.0382	983.357	24.7493
12.04203	968.479	24.78833
12.0446	978.655	24.8274
12.0488	977.998	24.8665
12.05196	971.254	24.9055
12.0546	978.792	24.94458
12.0586	973.515	24.9836
12.0612	972.285	25.0227
12.0647	978.385	25.0618
12.0675	969.753	25.10083
12.0722	975.464	25.1399
12.0729	977.135	25.179
12.0773	969.1709	25.218
12.0818	979.359	25.25708
12.0842	968.446	25.2961
12.08766	970.624	25.3352
12.0901	978.6203	25.3743
12.0937	964.97	25.41333
12.097	974.951	25.4524
12.1007	975.134	25.4915
12.1028	965.47	25.5305
12.107	978.322	25.56958
12.1097	973.376	25.6086
12.1139	968.204	25.6477
12.1172	978.651	25.6868
12.1185	968.059	25.72583
12.12332	973.573	25.7649
12.1259	974.838	25.804
12.1302	966.245	25.843
12.1339	978.3999	25.88208
12.1356	968.445	25.9211
12.1395	970.9917	25.9602
12.1425	976.625	25.9993
12.14518	965.117	26.03833
12.1493	971.949	26.0774
12.1529	973.429	26.1165
12.1552	963.178	26.1555
12.15984	974.631	26.19458
12.1626	968.021	26.2336
12.16535	964.371	26.2727
12.168	971.919	26.3118
12.17144	961.1637	26.35083
12.1746	969.433	26.3899
12.1789	966.679	26.429
12.1822	961.061	26.468
12.1851	972.459	26.50708
12.1891	960.206	26.5461
12.1917	962.7677	26.5852
12.19496	970.505	26.6243
12.1974	956.605	26.66333
12.2011	964.953	26.7024
12.2044	967.543	26.7415
12.2081	954.814	26.7805
12.2115	969.129	26.81958
12.2149	961.5517	26.8586
12.2172	957.144	26.8977
12.2205	967.448	26.9368
12.2242	956.545	26.97583
12.2271	963.244	27.0149
12.2292	963.267	27.054
12.2345	958.662	27.093
12.2371	965.607	27.13208
12.2411	959.222	27.1711
12.2431	960.112	27.2102
12.2462	966.171	27.2493
12.2503	954.518	27.28833
12.2542	960.989	27.3274
12.2562	960.553	27.3665
12.259	951.858	27.4055
12.26353	961.7876	27.44458
12.2673	953.068	27.4836
12.2698	952.595	27.5227
12.2733	958.11	27.5618
12.2772	948.112	27.60083
12.2788	954.61	27.6399
12.2828	952.5011	27.679
12.2857	945.535	27.718
12.289	955.005	27.75708
12.2921	944.108	27.7961
12.29508	945.528	27.8352
12.299	954.871	27.8743
12.3031	938.522	27.91333
12.3057	948.415	27.9524
12.3088	948.034	27.9915
12.3128	932.472	28.0305
12.3218	-18.8862	28.06958
12.321	-38.9604	28.1086
12.3238	-44.3575	28.1477
12.32656	-36.7294	28.1868
12.3293	-45.2845	28.22583
12.3327	-41.8439	28.2649
12.3364	-39.2813	28.304
12.3387	-44.9411	28.343
12.342	-35.8086	28.38208
12.3451	-42.6591	28.4211
12.34909	-42.7253	28.4602
12.3519	-33.6215	28.4993
12.3569	-46.4569	28.53833
12.3574	-37.0414	28.5774
12.3614	-37.7492	28.6165
12.36478	-45.2464	28.6555
12.3684	-34.1603	28.69458
12.3718	-41.795	28.7336
12.3742	-41.9124	28.7727
12.3776	-35.1288	28.8118
12.3814	-44.1148	28.85083
12.38444	-41.2323	28.8899
12.38762	-37.4019	28.929
12.3909	-47.3504	28.968
12.3938	-34.5431	29.00708
12.3964	-45.321	29.0461
12.4	-40.869	29.0852
12.4038	-35.2628	29.1243
12.4069	-49.07476	29.16333
12.4107	-38.9402	29.2024
12.4133	-39.0541	29.2415
12.41685	-47.0653	29.2805
12.419	-37.7018	29.31958
12.4232	-42.2235	29.3586
12.4258	-45.9235	29.3977
12.429	-35.9054	29.4368
12.4333	-43.846	29.47583
12.43695	-42.11	29.5149
12.4391	-38.8553	29.554
12.4425	-44.551	29.593
12.4457	-35.7793	29.63208
12.4489	-43.1396	29.6711
12.45309	-39.9029	29.7102
12.4546	-46.33	29.7297