File: data/processed_data_files/tensile/0.254_solid_dimension_typei_090_r(1).dat
MTS793|BTW|ENU|1|2|.|/|:|1|0|0|A

Data Header:			0.254_solid_dimension_typei_090_r0			Time:	20.0374	s	4/15/2019 2:12:03 PM
Data Acquisition:	Timed
Station Name:	ft40.cfg
Test File Name:	monotonic_0.2540_typei_solid_090_dimension.tst
Displacement	Force	Running Time
mm	N	s
9.97034	-108.047	0.041748
9.97156	-100.191	0.110107
9.977397	-92.6452	0.1784668
9.9821	-89.9109	0.246826
9.98865	-88.5875	0.315186
9.99306	-90.7124	0.383545
10.0004	-92.8703	0.4519043
10.005	-95.214	0.520264
10.0108	-91.6739	0.588623
10.0165	-83.6875	0.656982
10.0214	-78.0801	0.7253418
10.02827	-66.5463	0.793701
10.0329	-55.0906	0.862061
10.0398	-50.0548	0.93042
10.0452	-46.8725	0.9987793
10.0509	-45.1614	1.06714
10.057	-49.8519	1.135498
10.0631	-54.72411	1.20386
10.0675	-51.8622	1.27222
10.0736	-47.22937	1.34058
10.0786	-42.7101	1.40894
10.0851	-32.2987	1.47729
10.0899	-21.3184	1.54565
10.0969	-13.3542	1.61401
10.1023	-4.74087	1.682373
10.1075	-1.62144	1.75073
10.1125	-4.5096	1.81909
10.1199	-10.3548	1.88745
10.1239	-8.08387	1.95581
10.1302	-8.54531	2.02417
10.1356	-5.77282	2.09253
10.1413	3.34375	2.16089
10.1475	14.8364	2.229248
10.1526	24.6594	2.29761
10.1584	35.0116	2.36597
10.1643	41.8743	2.43433
10.1701	39.1429	2.50269
10.1758	37.4571	2.57104
10.182	37.9695	2.6394
10.1863	36.3321	2.70776
10.1933	36.1773	2.776123
10.1985	43.367	2.84448
10.2052	52.3482	2.91284
10.21	60.61697	2.9812
10.2153	72.8235	3.04956
10.2215	80.8274	3.11792
10.2265	80.2207	3.18628
10.2335	82.4905	3.25464
10.239	85.4417	3.322998
10.2439	81.5498	3.39136
10.2501	79.0736	3.45972
10.2566	84.231	3.52808
10.2614	90.4191	3.59644
10.2677	100.606	3.66479
10.2736	111.822	3.73315
10.2784	121.005	3.80151
10.2841	125.038	3.869873
10.2908	127.176	3.93823
10.2965	131.8432	4.00659
10.3014	128.8	4.07495
10.307	123.597	4.14331
10.3134	126.828	4.21167
10.3179	129.363	4.28003
10.325	137.368	4.34839
10.3299	148.513	4.416748
10.3353	158.518	4.48511
10.3414	163.766	4.55347
10.348	171.67	4.62183
10.3521	177.003	4.69019
10.3588	175.064	4.75854
10.3639	171.445	4.8269
10.3697	170.082	4.89526
10.3754	170.87	4.963623
10.3802	176.4998	5.03198
10.3873	184.2576	5.10034
10.3923	193.8694	5.1687
10.3979	201.012	5.23706
10.4046	213.399	5.30542
10.41	221.347	5.37378
10.4157	220.198	5.44214
10.4215	218.963	5.510498
10.4276	215.387	5.57886
10.43259	215.242	5.64722
10.4377	216.661	5.71558
10.44354	222.713	5.78394
10.4499	229.6022	5.85229
10.4557	239.0676	5.92065
10.4624	253.158	5.98901
10.46679	261.071	6.057373
10.4732	266.155	6.12573
10.4784	264.796	6.19409
10.484	262.736	6.26245
10.4901	260.727	6.33081
10.49638	259.912	6.39917
10.5005	261.329	6.46753
10.507	266.331	6.53589
10.5117	275.857	6.604248
10.5185	289.995	6.67261
10.5245	299.877	6.74097
10.5289	305.534	6.80933
10.5359	310.266	6.87769
10.541	308.719	6.94604
10.5472	307.757	7.0144
10.55235	306.389	7.08276
10.5579	305.361	7.151123
10.5624	304.289	7.21948
10.5698	312.224	7.28784
10.5752	325.761	7.3562
10.5805	333.5022	7.42456
10.5872	344.224	7.49292
10.5916	352.679	7.56128
10.5985	352.587	7.62964
10.604	351.83	7.697998
10.6089	351.514	7.76636
10.6149	346.044	7.83472
10.6213	344.799	7.90308
10.62621	351.469	7.97144
10.6317	361.996	8.03979
10.6382	368.832	8.10815
10.6441	380.718	8.17651
10.6489	391.146	8.244873
10.65485	393.841	8.31323
10.6609	397.779	8.38159
10.6658	398.694	8.44995
10.67265	393.007	8.51831
10.6765	388.3147	8.58667
10.6831	392.041	8.65503
10.6892	399.203	8.72339
10.69513	405.185	8.791748
10.7017	416.387	8.86011
10.7054	427.6337	8.92847
10.7113	433.306	8.99683
10.7182	440.318	9.06519
10.7227	441.952	9.13354
10.7296	439.942	9.2019
10.7359	432.92	9.27026
10.7409	435.02	9.338623
10.7463	438.4809	9.40698
10.7518	440.751	9.47534
10.7564	449.589	9.5437
10.765	462.56	9.61206
10.7683	469.519	9.68042
10.7737	477.543	9.74878
10.78	484.635	9.81714
10.7863	481.992	9.885498
10.793	480.5817	9.95386
10.7976	483.145	10.0222
10.8036	481.652	10.0906
10.8087	480.759	10.1589
10.8148	487.32	10.2273
10.8196	494.26	10.2957
10.8264	503.8858	10.364
10.8317	513.723	10.4324
10.8383	520.834	10.5007
10.8434	523.246	10.5691
10.84775	523.149	10.6375
10.8543	526.142	10.7058
10.8609	524.077	10.77417
10.8658	523.5235	10.8425
10.8715	525.147	10.9109
10.8783	529.537	10.9792
10.8829	539.2959	11.0476
10.8885	548.426	11.116
10.8952	558.178	11.1843
10.8997	560.995	11.2527
10.9057	566.3374	11.321
10.9117	567.657	11.3894
10.9166	566.067	11.4578
10.9234	565.536	11.5261
10.9287	564.385	11.5945
10.9337	567.911	11.6628
10.93893	574.876	11.7312
10.9449	583.7981	11.7996
10.9518	591.054	11.86792
10.957	597.456	11.9363
10.9627	604.933	12.0046
10.968	609.111	12.073
10.9743	608.3764	12.1414
10.9794	605.959	12.2097
10.9847	604.768	12.2781
10.9913	605.08	12.3464
10.996	610.501	12.4148
11.0023	617.795	12.4832
11.0078	624.0412	12.5515
11.0138	631.917	12.6199
11.0195	642.382	12.6882
11.0262	648.638	12.7566
11.0316	648.39	12.825
11.037	648.243	12.8933
11.0424	646.444	12.96167
11.0482	643.268	13.03
11.0528	646.701	13.0984
11.0597	652.691	13.1667
11.0648	657.446	13.2351
11.0706	664.569	13.3035
11.0759	679.4549	13.3718
11.08226	686.4801	13.4402
11.0875	686.616	13.5085
11.0944	688.736	13.5769
11.0985	687.538	13.6453
11.1056	682.944	13.7136
11.1109	683.809	13.782
11.1167	689.079	13.8503
11.1221	690.151	13.9187
11.12813	697.265	13.9871
11.13292	711.064	14.05542
11.1392	720.461	14.1238
11.1445	723.723	14.1921
11.1507	728.313	14.2605
11.1566	727.541	14.3289
11.16208	722.541	14.3972
11.167	722.9	14.4656
11.1737	722.238	14.5339
11.1798	724.45	14.6023
11.184	730.508	14.6707
11.1904	743.389	14.739
11.1963	752.3797	14.8074
11.2029	757.426	14.8757
11.208	764.074	14.9441
11.2133	765.049	15.0125
11.2186	762.618	15.0808
11.2252	760.176	15.14917
11.2304	760.276	15.2175
11.2351	757.6	15.2859
11.2408	761.097	15.3542
11.2474	774.751	15.4226
11.2536	783.864	15.491
11.2584	792.012	15.5593
11.2643	798.924	15.6277
11.2701	801.959	15.696
11.2759	801.25	15.7644
11.282	799.224	15.8328
11.2875	797.244	15.9011
11.292	792.517	15.9695
11.2987	795.899	16.0378
11.3042	805.891	16.1062
11.31058	812.43	16.1746
11.3155	821.139	16.24292
11.3207	830.177	16.3113
11.3272	835.599	16.3796
11.3329	836.712	16.448
11.3383	835.268	16.5164
11.3449	832.13	16.5847
11.3501	828.142	16.6531
11.3555	828.451	16.7214
11.3611	835.061	16.7898
11.367	840.329	16.8582
11.3727	848.57	16.9265
11.3792	858.548	16.9949
11.3851	865.003	17.0632
11.3896	869.747	17.1316
11.3958	869.556	17.2
11.4013	865.66	17.2683
11.4073	861.291	17.33667
11.4131	862.614	17.405
11.4188	863.51	17.4734
11.424	867.431	17.5417
11.4294	875.269	17.6101
11.4359	884.591	17.6785
11.4407	891.067	17.7468
11.4473	899.6889	17.8152
11.4527	902.588	17.8835
11.4588	897.005	17.9519
11.4644	893.461	18.0203
11.4702	893.1991	18.0886
11.4755	892.96	18.157
11.4812	894.963	18.2253
11.4877	901.9837	18.2937
11.49231	909.587	18.3621
11.4972	917.46	18.43042
11.5035	924.972	18.4988
11.5096	929.428	18.5671
11.5146	925.405	18.6355
11.521	922.836	18.7039
11.5264	924.682	18.7722
11.5323	918.984	18.8406
11.538	919.135	18.9089
11.5439	923.502	18.9773
11.5498	929.483	19.0457
11.5547	937.95	19.114
11.5608	946.534	19.1824
11.5667	952.863	19.2507
11.5726	950.705	19.3191
11.5776	948.873	19.3875
11.58395	950.3299	19.4558
11.58934	945.988	19.52417
11.5952	940.913	19.5925
11.6012	944.272	19.6609
11.607	946.518	19.7292
11.6132	953.028	19.7976
11.6189	963.908	19.866
11.6241	969.8045	19.9343
11.6305	970.62	20.0027
11.6323	953.802	20.032

Data Header:			0.254_solid_dimension_typei_090_r0			Time:	40.0378	s	4/15/2019 2:12:23 PM
Data Acquisition:	Timed
Station Name:	ft40.cfg
Test File Name:	monotonic_0.2540_typei_solid_090_dimension.tst
Displacement	Force	Running Time
mm	N	s
11.6327	954.152	20.0417
11.6373	963.887	20.1101
11.645	971.589	20.1785
11.6504	975.819	20.2468
11.6549	981.446	20.3152
11.6611	982.606	20.3835
11.666	976.879	20.4519
11.6727	971.125	20.5203
11.6779	969.186	20.5886
11.6842	968.756	20.657
11.6898	966.857	20.7253
11.6947	974.817	20.7937
11.7003	982.555	20.8621
11.7059	987.806	20.93042
11.7116	994.0517	20.9988
11.7176	997.399	21.0671
11.7238	993.316	21.1355
11.7303	987.13	21.2039
11.735	985.878	21.2722
11.7404	983.263	21.3406
11.7466	977.0625	21.4089
11.753	982.914	21.4773
11.7579	989.707	21.5457
11.7641	993.242	21.614
11.7699	1001.1	21.6824
11.7753	1007.47	21.7507
11.7804	1002.52	21.8191
11.7868	998.1084	21.8875
11.79213	995.826	21.9558
11.7978	991.519	22.02417
11.80475	986.929	22.0925
11.8094	988.555	22.1609
11.8158	990.222	22.2292
11.82045	996.673	22.2976
11.8258	1003.17	22.366
11.8333	1010.19	22.4343
11.8376	1008.79	22.5027
11.8435	1005.41	22.571
11.8497	1006.2	22.6394
11.8549	1000.5	22.7078
11.8608	992.637	22.7761
11.86618	990.673	22.8445
11.8711	993.372	22.9128
11.8769	995.948	22.9812
11.8832	1002.52	23.0496
11.8887	1008.34	23.11792
11.8947	1009.34	23.1863
11.901	1008.654	23.2546
11.90594	1010.43	23.323
11.9119	1005.48	23.3914
11.91739	997.657	23.4597
11.9229	992.336	23.5281
11.9282	991.394	23.5964
11.93471	993.106	23.6648
11.94	998.348	23.7332
11.9465	1002.8	23.8015
11.9524	1006.07	23.8699
11.9573	1009.66	23.9382
11.9628	1011.13	24.0066
11.9688	1006.22	24.075
11.97416	1000.82	24.1433
11.9805	995.342	24.21167
11.986	990.113	24.28
11.9919	989.469	24.3484
11.9972	992.671	24.4167
12.0026	996.9339	24.4851
12.0098	1000.541	24.5535
12.01427	1006.15	24.6218
12.0194	1009.67	24.6902
12.0264	1007.18	24.7585
12.0313	1001.86	24.8269
12.0372	997.046	24.8953
12.0424	987.9	24.9636
12.0488	986.901	25.032
12.0541	988.48	25.1003
12.0604	989.975	25.1687
12.0663	992.652	25.2371
12.0709	1000.52	25.30542
12.077	1007.37	25.3738
12.0838	1004.1	25.4421
12.0889	1001.47	25.5105
12.0946	997.207	25.5789
12.0995	987.974	25.6472
12.1062	983.428	25.7156
12.111	983.372	25.7839
12.1161	983.171	25.8523
12.1231	984.326	25.9207
12.1288	993.508	25.989
12.1341	1001.55	26.0574
12.139	1000.14	26.1257
12.1457	999.948	26.1941
12.1509	997.377	26.2625
12.1569	989.134	26.3308
12.1633	983.529	26.39917
12.1676	980.975	26.4675
12.1734	978.836	26.5359
12.1801	976.617	26.6042
12.1856	985.856	26.6726
12.1912	994.658	26.741
12.1974	995.687	26.8093
12.2009	998.802	26.8777
12.2083	996.355	26.946
12.21372	990.252	27.0144
12.2196	982.88	27.0828
12.2259	980.018	27.1511
12.2301	975.371	27.2195
12.2366	971.199	27.2878
12.2426	978.924	27.3562
12.2481	986.356	27.4246
12.25399	990.376	27.49292
12.2592	994.214	27.5613
12.2645	996.736	27.6296
12.2704	992.324	27.698
12.2769	984.561	27.7664
12.282	982.2373	27.8347
12.2883	972.529	27.9031
12.2932	969.14	27.9714
12.2997	972.976	28.0398
12.3055	980.001	28.1082
12.3106	985.161	28.1765
12.3166	990.627	28.2449
12.3231	993.851	28.3132
12.3282	992.594	28.3816
12.3342	988.876	28.45
12.3395	981.1684	28.5183
12.3453	972.7959	28.58667
12.3509	969.3988	28.655
12.3564	969.396	28.7234
12.3622	973.085	28.7917
12.3675	979.08	28.8601
12.3732	986.378	28.9285
12.3791	989.422	28.9968
12.3847	991.935	29.0652
12.39025	989.943	29.1335
12.3968	985	29.2019
12.4016	972.939	29.2703
12.4077	968.666	29.3386
12.4132	969.735	29.407
12.4191	970.074	29.4753
12.4256	973.137	29.5437
12.431	980.028	29.6121
12.4367	986.227	29.68042
12.4413	987.543	29.7488
12.4479	990.018	29.8171
12.4521	986.929	29.8855
12.4587	976.6825	29.9539
12.4641	969.8797	30.0222
12.4708	970.709	30.0906
12.4751	966.752	30.1589
12.4818	967.027	30.2273
12.4879	974.553	30.2957
12.4933	980.981	30.364
12.49816	985.964	30.4324
12.5047	988.249	30.5007
12.5098	989.377	30.5691
12.5167	980.777	30.6375
12.52023	973.858	30.7058
12.527	972.1153	30.77417
12.5331	967.984	30.8425
12.5385	964.562	30.9109
12.5436	971.648	30.9792
12.5504	976.917	31.0476
12.5558	979.985	31.116
12.5616	985.942	31.1843
12.5674	988.231	31.2527
12.5728	983.156	31.321
12.5785	975.584	31.3894
12.5842	974.908	31.4578
12.5901	968.588	31.5261
12.5958	964.627	31.5945
12.6013	966.507	31.6628
12.6077	972.4455	31.7312
12.6125	977.177	31.7996
12.6192	983.552	31.86792
12.6242	987.6087	31.9363
12.6306	985.459	32.0046
12.6364	980.123	32.073
12.6412	978.266	32.1414
12.6477	971.61	32.2097
12.6529	965.421	32.2781
12.6594	964.805	32.3464
12.6638	967.075	32.4148
12.67103	973.219	32.4832
12.6763	977.622	32.5515
12.6814	984.173	32.6199
12.687	984.477	32.6882
12.6937	983.638	32.7566
12.6989	981.694	32.825
12.704	974.564	32.8933
12.7091	969.06	32.96167
12.7157	965.266	33.03
12.721	963.674	33.0984
12.7274	969.102	33.1667
12.7327	975.961	33.2351
12.7376	979.32	33.3035
12.7439	983.078	33.3718
12.7481	983.486	33.4402
12.7561	984.766	33.5085
12.76123	977.489	33.5769
12.7668	972.066	33.6453
12.7706	966.815	33.7136
12.7786	963.291	33.782
12.7835	964.996	33.8503
12.7893	970.961	33.9187
12.7943	974.942	33.9871
12.7998	977.6308	34.05542
12.8063	983.438	34.1238
12.8132	985.989	34.1921
12.8176	980.515	34.2605
12.8235	974.871	34.3289
12.8291	971.405	34.3972
12.83518	963.728	34.4656
12.8406	962.334	34.5339
12.846	967.475	34.6023
12.852	971.18	34.6707
12.858	973.244	34.739
12.8624	979.897	34.8074
12.8687	987.226	34.8757
12.875	983.646	34.9441
12.881	978.384	35.0125
12.8867	973.048	35.0808
12.8918	967.685	35.14917
12.8985	962.19	35.2175
12.9034	964.109	35.2859
12.9093	967.9248	35.3542
12.916	969.525	35.4226
12.9215	975.974	35.491
12.9258	983.8847	35.5593
12.9324	983.459	35.6277
12.9383	979.4397	35.696
12.945	976.042	35.7644
12.9491	970.29	35.8328
12.956	963.529	35.9011
12.96	963.005	35.9695
12.96586	964.246	36.0378
12.971	964.993	36.1062
12.9773	970.646	36.1746
12.9832	982.608	36.24292
12.9886	982.867	36.3113
12.9945	981.389	36.3796
13.0002	980.477	36.448
13.006	973.311	36.5164
13.0123	967.195	36.5847
13.0166	962.899	36.6531
13.0237	962.457	36.7214
13.0285	961.013	36.7898
13.0345	966.85	36.8582
13.03963	975.737	36.9265
13.04595	980.9447	36.9949
13.052	983.7	37.0632
13.0578	980.982	37.1316
13.0623	976.635	37.2
13.0686	972.628	37.2683
13.0741	965.504	37.33667
13.0801	961.3974	37.405
13.0861	958.398	37.4734
13.0917	963.143	37.5417
13.0969	972.026	37.6101
13.1031	977.904	37.6785
13.1089	982.239	37.7468
13.1144	982.243	37.8152
13.1206	978.659	37.8835
13.1263	975.791	37.9519
13.1318	968.654	38.0203
13.1376	961.013	38.0886
13.1433	958.196	38.157
13.1486	960.413	38.2253
13.1552	966.288	38.2937
13.15962	972.732	38.3621
13.165	978.233	38.43042
13.171	982.165	38.4988
13.177	979.44	38.5671
13.1833	977.489	38.6355
13.1892	971.447	38.7039
13.19437	962.586	38.7722
13.1992	955.8551	38.8406
13.20629	957.471	38.9089
13.2106	962.1	38.9773
13.2168	965.894	39.0457
13.22276	972.6333	39.114
13.2279	979.6189	39.1824
13.2339	978.562	39.2507
13.2396	976.528	39.3191
13.2456	974.346	39.3875
13.2507	966.207	39.4558
13.2557	956.572	39.52417
13.2622	954.581	39.5925
13.2674	958.732	39.6609
13.273	959.041	39.7292
13.2803	966.0274	39.7976
13.2855	973.6524	39.866
13.2904	976.441	39.9343
13.2958	976.563	40.0027
13.299	954.918	40.032

Data Header:			0.254_solid_dimension_typei_090_r0			Time:	43.3694	s	4/15/2019 2:12:26 PM
Data Acquisition:	Timed
Station Name:	ft40.cfg
Test File Name:	monotonic_0.2540_typei_solid_090_dimension.tst
Displacement	Force	Running Time
mm	N	s
13.2989	957.553	40.0417
13.3005	978.098	40.0613
13.3028	963.469	40.0808
13.3048	955.604	40.1003
13.3064	975.064	40.1199
13.3078	967.072	40.1394
13.3096	951.9563	40.1589
13.312	971.2337	40.1785
13.3128	969.87	40.198
13.3144	954.225	40.2175
13.3154	968.282	40.2371
13.3176	971.364	40.2566
13.31853	953.146	40.2761
13.3205	961.569	40.2957
13.3226	975.028	40.3152
13.3238	957.1778	40.3347
13.3249	957.269	40.3542
13.3269	972.901	40.3738
13.3289	960.114	40.3933
13.3303	952.236	40.4128
13.3321	971.983	40.4324
13.3341	964.712	40.4519
13.33523	953.409	40.4714
13.3376	964.96	40.491
13.33874	967.219	40.5105
13.3404	947.969	40.53
13.3413	964.465	40.5496
13.3444	969.466	40.5691
13.3454	950.02	40.5886
13.3469	951.674	40.6082
13.3484	970.807	40.6277
13.35014	950.023	40.6472
13.3516	950.724	40.6667
13.3533	965.331	40.6863
13.354	951.429	40.7058
13.356	939.58	40.7253
13.3586	960.382	40.7449
13.3593	946.307	40.7644
13.3666	22.852	40.7839
13.3677	-41.0268	40.8035
13.3665	-37.1438	40.823
13.3683	-53.54546	40.8425
13.3698	-41.5312	40.8621
13.37063	-34.7037	40.8816
13.3726	-51.502	40.9011
13.3735	-45.3585	40.9207
13.37536	-33.2285	40.9402
13.3778	-48.5516	40.9597
13.3786	-51.2236	40.9792
13.3805	-31.1084	40.9988
13.3822	-42.0666	41.0183
13.38303	-53.667	41.0378
13.38622	-37.8979	41.0574
13.3867	-38.3276	41.0769
13.3879	-54.5002	41.0964
13.3907	-37.3458	41.116
13.391	-34.7144	41.1355
13.39286	-52.3351	41.155
13.3945	-46.3169	41.1746
13.3951	-30.83449	41.1941
13.3978	-53.0912	41.2136
13.3997	-46.7568	41.2332
13.4008	-30.3928	41.2527
13.4021	-45.1132	41.2722
13.4044	-54.3557	41.2917
13.406	-32.0427	41.3113
13.4074	-43.409	41.3308
13.4095	-51.8419	41.3503
13.4098	-33.83276	41.3699
13.4122	-40.207	41.3894
13.41369	-56.5247	41.4089
13.4149	-36.596	41.4285
13.4173	-34.94347	41.448
13.418	-54.5894	41.4675
13.4211	-43.108	41.4871
13.4221	-33.3816	41.5066
13.4231	-51.3437	41.5261
13.4261	-46.5466	41.5457
13.426	-32.4071	41.5652
13.4279	-47.8667	41.5847
13.429	-48.9625	41.6042
13.43199	-34.6767	41.6238
13.4332	-45.0679	41.6433
13.4347	-53.1748	41.6628
13.4367	-34.003	41.6824
13.4383	-39.6137	41.7019
13.4401	-50.2448	41.7214
13.44148	-41.7492	41.741
13.4432	-34.0356	41.7605
13.4448	-52.4521	41.78
13.4464	-40.31118	41.7996
13.4482	-32.4094	41.8191
13.4493	-51.4387	41.8386
13.4518	-49.0866	41.8582
13.4534	-29.9058	41.8777
13.4548	-49.0343	41.8972
13.4568	-48.0462	41.9167
13.4577	-32.4834	41.9363
13.4589	-41.2973	41.9558
13.4616	-55.8412	41.9753
13.4621	-33.3762	41.9949
13.4641	-40.4398	42.0144
13.4662	-52.4337	42.0339
13.4672	-34.7775	42.0535
13.4694	-36.6602	42.073
13.4701	-56.1327	42.0925
13.4722	-41.0525	42.1121
13.4743	-31.7692	42.1316
13.4752	-51.6342	42.1511
13.4775	-46.1112	42.1707
13.4789	-33.6483	42.1902
13.48001	-49.4966	42.2097
13.482	-48.0471	42.2292
13.4836	-33.5351	42.2488
13.4856	-45.3925	42.2683
13.4871	-49.3823	42.2878
13.4898	-35.4028	42.3074
13.4891	-39.8592	42.3269
13.4919	-54.3628	42.3464
13.4934	-35.6463	42.366
13.495	-35.4562	42.3855
13.4966	-51.3877	42.405
13.4973	-44.3372	42.4246
13.4995	-33.1734	42.4441
13.50174	-50.6295	42.4636
13.5035	-42.1221	42.4832
13.505	-30.8273	42.5027
13.5058	-47.0629	42.5222
13.5083	-53.0681	42.5417
13.5096	-30.1346	42.5613
13.5112	-42.9779	42.5808
13.5129	-51.9294	42.6003
13.5146	-32.8212	42.6199
13.5158	-39.2162	42.6394
13.5173	-55.7482	42.6589
13.5201	-35.9988	42.6785
13.522	-36.84594	42.698
13.5223	-52.8717	42.7175
13.5255	-40.2921	42.7371
13.5268	-33.0827	42.7566
13.5283	-53.7918	42.7761
13.52949	-43.736	42.7957
13.5313	-31.9185	42.8152
13.5335	-48.2543	42.8347
13.53436	-48.6363	42.8542
13.5353	-34.4501	42.8738
13.537	-45.9386	42.8933
13.5392	-52.20388	42.9128
13.5403	-34.0193	42.9324
13.5429	-43.0346	42.9519
13.5438	-52.0671	42.9714
13.5455	-40.5207	42.991
13.54784	-36.4	43.0105
13.5491	-53.6642	43.03
13.5498	-41.61092	43.0496
13.552	-33.6644	43.0691
13.5537	-49.6042	43.0886
13.5556	-48.7775	43.1082
13.5569	-31.6364	43.1277
13.559	-50.0206	43.1472
13.5612	-46.8115	43.1667
13.5628	-33.1235	43.1863
13.5638	-44.1187	43.2058
13.5645	-54.1022	43.2253
13.5657	-31.8781	43.2449
13.5687	-40.0332	43.2644
13.57	-53.22625	43.2839
13.571	-38.0741	43.3035
13.573	-36.1232	43.323
13.5753	-53.7653	43.3425
13.57626	-38.7706	43.3621