File: data/processed_data_files/tensile/0.254_solid_dimension_typeiv_4545_r(2).dat
MTS793|BTW|ENU|1|2|.|/|:|1|0|0|A

Data Header:			0.254_solid_dimension_typeiv_4545_r0			Time:	20.0188	s	4/13/2019 8:35:16 PM
Data Acquisition:	Timed
Station Name:	ft40.cfg
Test File Name:	monotonic_0.2540_typeiv_solid_4545_dimension.tst
Displacement	Force	Running Time
mm	N	s
-40.0351	-189.997	0.0224609
-40.0325	-189.6413	0.0908203
-40.0265	-185.679	0.15918
-40.0212	-178.463	0.227539
-40.0152	-175.855	0.295898
-40.0098	-172.95	0.364258
-40.0037	-170.403	0.432617
-39.9977	-165.718	0.500977
-39.9931	-167.881	0.569336
-39.9874	-164.355	0.637695
-39.9815	-154.769	0.706055
-39.9763	-151.3	0.774414
-39.9708	-147.496	0.842773
-39.9651	-141.1463	0.911133
-39.95821	-136.324	0.979492
-39.9529	-132.6205	1.04785
-39.9474	-129.132	1.11621
-39.9412	-126.34	1.18457
-39.93438	-126.08	1.25293
-39.9309	-125.45	1.32129
-39.9252	-116.863	1.38965
-39.9187	-112.5155	1.45801
-39.91288	-108.806	1.52637
-39.9075	-101.723	1.59473
-39.9015	-96.4804	1.66309
-39.89719	-91.6658	1.73145
-39.891	-88.1473	1.7998
-39.8847	-86.38343	1.86816
-39.8781	-85.5359	1.93652
-39.8732	-83.2996	2.00488
-39.868	-77.0714	2.07324
-39.8615	-74.179	2.1416
-39.857	-68.3469	2.20996
-39.8498	-63.2176	2.27832
-39.8441	-56.8763	2.34668
-39.83897	-51.5433	2.41504
-39.83437	-48.112	2.4834
-39.8275	-45.6328	2.55176
-39.8215	-43.1948	2.62012
-39.81609	-40.3488	2.68848
-39.8105	-37.9853	2.75684
-39.8052	-35.49622	2.8252
-39.7997	-30.2573	2.89355
-39.7934	-25.2619	2.96191
-39.78796	-20.3377	3.03027
-39.7825	-12.222	3.09863
-39.7767	-7.58649	3.16699
-39.7702	-6.33528	3.23535
-39.765	-5.2859	3.30371
-39.7603	-0.710635	3.37207
-39.7539	1.769461	3.44043
-39.7471	2.31855	3.50879
-39.7423	8.7546	3.57715
-39.7369	15.0898	3.64551
-39.7309	18.3233	3.71387
-39.7245	27.2426	3.78223
-39.7197	32.6953	3.85059
-39.7137	32.4278	3.91895
-39.7092	35.2537	3.9873
-39.7025	41.7355	4.05566
-39.6966	42.4389	4.12402
-39.6905	44.41283	4.19238
-39.6847	49.2215	4.26074
-39.6793	52.69582	4.3291
-39.6743	59.0329	4.39746
-39.6674	67.0528	4.46582
-39.6633	72.2116	4.53418
-39.6584	73.4472	4.60254
-39.6516	77.385	4.6709
-39.6454	84.2913	4.73926
-39.6394	83.3346	4.80762
-39.63361	83.17054	4.87598
-39.6287	90.6141	4.94434
-39.622	93.6436	5.0127
-39.6165	98.4037	5.08105
-39.612	103.569	5.14941
-39.6056	112.698	5.21777
-39.5999	112.195	5.28613
-39.594	115.8	5.35449
-39.5888	123.978	5.42285
-39.5826	125.273	5.49121
-39.5776	123.824	5.55957
-39.572	128.067	5.62793
-39.5658	132.87	5.69629
-39.5609	137.092	5.76465
-39.5538	142.331	5.83301
-39.5488	149.32	5.90137
-39.5435	151.072	5.96973
-39.5377	156.896	6.03809
-39.5307	163.932	6.10645
-39.52578	165.106	6.1748
-39.5209	166.708	6.24316
-39.5149	168.75	6.31152
-39.5086	171.788	6.37988
-39.5026	175.084	6.44824
-39.4966	178.539	6.5166
-39.4919	185.431	6.58496
-39.486	188.323	6.65332
-39.48074	195.929	6.72168
-39.4752	202.567	6.79004
-39.4697	205.569	6.8584
-39.4628	206.137	6.92676
-39.4576	208.743	6.99512
-39.4514	210.379	7.06348
-39.4461	214.974	7.13184
-39.4407	217.37	7.2002
-39.43457	220.788	7.26855
-39.4298	226.183	7.33691
-39.4232	234.756	7.40527
-39.4181	236.535	7.47363
-39.4124	242.821	7.54199
-39.4062	247.295	7.61035
-39.4008	248.37	7.67871
-39.3944	249.5041	7.74707
-39.3897	252.903	7.81543
-39.3845	256.539	7.88379
-39.3783	257.985	7.95215
-39.3724	261.191	8.02051
-39.3653	272.171	8.08887
-39.362	275.804	8.15723
-39.3558	279.22	8.22559
-39.3493	284.775	8.29395
-39.34478	287.704	8.3623
-39.3378	288.819	8.43066
-39.3329	292.742	8.49902
-39.32753	295.424	8.56738
-39.3218	296.029	8.63574
-39.31506	299.252	8.7041
-39.3098	310.053	8.77246
-39.3042	312.334	8.84082
-39.2977	315.329	8.90918
-39.2943	322.609	8.97754
-39.2873	324.398	9.0459
-39.2811	326.36	9.11426
-39.2744	329.935	9.18262
-39.2702	331.752	9.25098
-39.2649	331.441	9.31934
-39.2572	334.52	9.3877
-39.2522	344.317	9.45605
-39.2465	348.5752	9.52441
-39.2407	350.2308	9.59277
-39.2333	356.289	9.66113
-39.23	361.642	9.72949
-39.2239	364.6998	9.79785
-39.219	367.592	9.86621
-39.2124	368.1825	9.93457
-39.2067	369.251	10.00293
-39.2018	372.258	10.0713
-39.1954	379.139	10.1396
-39.18959	380.578	10.208
-39.1848	388.089	10.2764
-39.179	393.395	10.3447
-39.17292	397.2543	10.4131
-39.1677	401.53	10.4814
-39.1613	403.386	10.5498
-39.1563	405.051	10.6182
-39.1501	403.888	10.6865
-39.1446	407.658	10.7549
-39.139	411.975	10.8232
-39.1327	415.136	10.8916
-39.12767	419.422	10.96
-39.122	423.828	11.02832
-39.1175	428.861	11.09668
-39.1098	436.472	11.165
-39.1054	439.158	11.2334
-39.09885	437.848	11.3018
-39.093	440.508	11.3701
-39.0879	443.417	11.4385
-39.0821	444.97	11.5068
-39.0763	446.064	11.5752
-39.071	453.575	11.6436
-39.0647	456.743	11.7119
-39.0596	462.882	11.7803
-39.0527	469.715	11.8486
-39.0479	471.231	11.917
-39.0423	471.1261	11.9854
-39.0372	473.0773	12.0537
-39.0308	477.297	12.12207
-39.02343	478.194	12.19043
-39.0193	478.655	12.2588
-39.0135	484.066	12.3271
-39.008	486.971	12.3955
-39.0018	492.368	12.4639
-38.9971	498.057	12.5322
-38.9914	503.839	12.6006
-38.9859	502.985	12.6689
-38.9804	505.159	12.7373
-38.9735	511.008	12.8057
-38.9679	509.499	12.874
-38.9629	506.683	12.9424
-38.9566	513.334	13.0107
-38.9503	515.931	13.0791
-38.9455	521.1806	13.1475
-38.9394	526.197	13.21582
-38.9339	531.912	13.28418
-38.9281	530.173	13.3525
-38.9223	532.552	13.4209
-38.9163	538.989	13.4893
-38.91087	536.651	13.5576
-38.9049	536.318	13.626
-38.89904	540.174	13.6943
-38.89426	541.647	13.7627
-38.8887	545.69	13.8311
-38.8815	550.784	13.8994
-38.8771	554.172	13.9678
-38.87019	557.07	14.0361
-38.8666	558.774	14.1045
-38.8596	563.157	14.1729
-38.8538	561.723	14.2412
-38.84898	560.903	14.30957
-38.84322	561.745	14.37793
-38.8373	562.764	14.4463
-38.8314	567.219	14.5146
-38.8239	570.772	14.583
-38.8203	572.146	14.6514
-38.8128	573.973	14.7197
-38.8084	578.647	14.7881
-38.8036	580.828	14.8564
-38.7971	581.285	14.9248
-38.7905	580.869	14.9932
-38.7857	578.375	15.0615
-38.7798	578.9671	15.1299
-38.7748	582.347	15.1982
-38.76939	583.482	15.2666
-38.76302	583.446	15.335
-38.7583	587.156	15.40332
-38.7501	591.86	15.47168
-38.7462	590.894	15.54
-38.7401	590.72	15.6084
-38.7351	592.314	15.6768
-38.7277	589.8736	15.7451
-38.7233	587.153	15.8135
-38.7179	590.192	15.8818
-38.7115	590.366	15.9502
-38.7057	589.3089	16.0186
-38.70013	590.774	16.0869
-38.6947	596.537	16.1553
-38.6889	595.233	16.2236
-38.68309	594.258	16.292
-38.6772	596.61	16.3604
-38.6716	592.9541	16.4287
-38.6665	590.8	16.49707
-38.6605	589.794	16.56543
-38.6539	589.462	16.6338
-38.6487	586.718	16.7021
-38.64315	587.744	16.7705
-38.637	594.093	16.8389
-38.6325	592.276	16.9072
-38.6265	591.815	16.9756
-38.6209	594.0943	17.0439
-38.6146	592.8	17.1123
-38.6079	590.233	17.1807
-38.604	587.975	17.249
-38.5984	587.426	17.3174
-38.5921	582.411	17.3857
-38.58654	582.59	17.4541
-38.5806	586.275	17.5225
-38.5747	586.883	17.59082
-38.5703	587.241	17.65918
-38.5644	588.677	17.7275
-38.55727	587.927	17.7959
-38.5519	586.357	17.8643
-38.5473	584.297	17.9326
-38.5407	581.8949	18.001
-38.5343	578.342	18.0693
-38.5291	577.897	18.1377
-38.5232	581.909	18.2061
-38.5173	579.6424	18.2744
-38.512	582.509	18.3428
-38.5065	583.0921	18.4111
-38.501	582.157	18.4795
-38.4952	583.433	18.5479
-38.4898	580.568	18.6162
-38.4844	577.621	18.68457
-38.4778	574.215	18.75293
-38.4712	572.76	18.8213
-38.4662	576.704	18.8896
-38.4604	575.164	18.958
-38.4555	577.019	19.0264
-38.45	579.24	19.0947
-38.4442	578.635	19.1631
-38.4379	580.617	19.2314
-38.4321	578.585	19.2998
-38.4264	575.629	19.3682
-38.4197	571.591	19.4365
-38.41573	571.788	19.5049
-38.4088	571.426	19.5732
-38.4038	569.552	19.6416
-38.39806	573.459	19.71
-38.3919	573.291	19.77832
-38.3861	574.362	19.84668
-38.3823	577.671	19.915
-38.3763	576.602	19.9834
-38.3736	567.182	20.0127

Data Header:			0.254_solid_dimension_typeiv_4545_r0			Time:	40.0173	s	4/13/2019 8:35:36 PM
Data Acquisition:	Timed
Station Name:	ft40.cfg
Test File Name:	monotonic_0.2540_typeiv_solid_4545_dimension.tst
Displacement	Force	Running Time
mm	N	s
-38.3723	571.045	20.0225
-38.3658	571.699	20.09082
-38.3613	574.2359	20.15918
-38.3551	574.175	20.2275
-38.351	573.335	20.2959
-38.3431	574.131	20.3643
-38.3385	570.187	20.4326
-38.3311	567.073	20.501
-38.3264	564.4	20.5693
-38.3213	564.395	20.6377
-38.315	568.006	20.7061
-38.3094	567.1203	20.7744
-38.3039	570.917	20.8428
-38.2974	570.2204	20.9111
-38.2924	569.262	20.9795
-38.2872	571.571	21.0479
-38.2799	570.061	21.1162
-38.2754	564.2981	21.18457
-38.27	561.782	21.25293
-38.2636	562.379	21.3213
-38.25771	564.513	21.3896
-38.2534	563.099	21.458
-38.2478	566.905	21.5264
-38.2404	567.774	21.5947
-38.2349	567.316	21.6631
-38.2296	569.648	21.7314
-38.2238	570.16	21.7998
-38.2187	565.074	21.8682
-38.21146	560.713	21.9365
-38.2064	562.029	22.0049
-38.202	563.139	22.0732
-38.1957	560.024	22.1416
-38.1898	562.723	22.21
-38.1835	564.8858	22.27832
-38.1787	565.096	22.34668
-38.1738	567.088	22.415
-38.1674	569.386	22.4834
-38.1625	564.742	22.5518
-38.1559	559.304	22.6201
-38.1496	560.628	22.6885
-38.1442	559.501	22.7568
-38.13821	555.1485	22.8252
-38.1341	559.983	22.8936
-38.129	561.525	22.9619
-38.1218	561.312	23.0303
-38.1162	565.88	23.0986
-38.1104	565.2428	23.167
-38.1053	562.875	23.2354
-38.09922	559.532	23.3037
-38.09354	559.299	23.37207
-38.0878	556.771	23.44043
-38.0827	555.357	23.5088
-38.0762	556.26	23.5771
-38.0704	558.3476	23.6455
-38.0644	560.2663	23.7139
-38.0597	563.651	23.7822
-38.0527	563.586	23.8506
-38.0482	561.215	23.9189
-38.04108	559.668	23.9873
-38.0368	558.996	24.0557
-38.0296	556.501	24.124
-38.02486	556.451	24.1924
-38.0188	554.138	24.2607
-38.0143	554.834	24.3291
-38.0071	559.349	24.3975
-38.0014	561.118	24.46582
-37.9958	561.769	24.53418
-37.9912	560.69	24.6025
-37.9851	560.828	24.6709
-37.9791	560.363	24.7393
-37.9742	557.25	24.8076
-37.96756	554.956	24.876
-37.9612	553.706	24.9443
-37.9569	552.716	25.0127
-37.9517	557.117	25.0811
-37.9438	558.925	25.1494
-37.9393	558.7959	25.2178
-37.9342	557.421	25.2861
-37.9279	560.875	25.3545
-37.9217	561.063	25.4229
-37.9168	555.732	25.4912
-37.91016	555.482	25.55957
-37.9053	553.989	25.62793
-37.8985	551.739	25.6963
-37.8942	551.492	25.7646
-37.888	557.157	25.833
-37.8819	555.815	25.9014
-37.876	555.032	25.9697
-37.8719	559.391	26.0381
-37.8651	560.384	26.1064
-37.8591	554.209	26.1748
-37.8533	554.498	26.2432
-37.8482	553.779	26.3115
-37.8424	550.512	26.3799
-37.8378	552.652	26.4482
-37.831	555.175	26.5166
-37.82542	552.5882	26.585
-37.8199	552.66	26.65332
-37.814	557.7019	26.72168
-37.8073	559.6947	26.79
-37.8016	556.776	26.8584
-37.7968	555.686	26.9268
-37.7906	554.107	26.9951
-37.78598	552.406	27.0635
-37.7808	550.141	27.1318
-37.7743	552.0885	27.2002
-37.7679	550.292	27.2686
-37.7632	550.162	27.3369
-37.757	555.767	27.4053
-37.7517	557.168	27.4736
-37.74522	556.647	27.542
-37.7408	556.219	27.6104
-37.734	553.507	27.6787
-37.72887	553.801	27.74707
-37.723	551.46	27.81543
-37.7162	549.962	27.8838
-37.7114	547.481	27.9521
-37.7064	549.9043	28.0205
-37.7003	553.7923	28.0889
-37.6943	554.94	28.1572
-37.6885	556.627	28.2256
-37.6819	556.062	28.2939
-37.6766	552.492	28.3623
-37.6722	554.616	28.4307
-37.6651	553.179	28.499
-37.6615	550.782	28.5674
-37.6558	547.112	28.6357
-37.6485	550.971	28.7041
-37.6423	552.381	28.7725
-37.6375	551.944	28.84082
-37.6321	553.571	28.90918
-37.6259	556.406	28.9775
-37.6207	552.737	29.0459
-37.615	551.752	29.1143
-37.6091	552.797	29.1826
-37.6028	549.589	29.251
-37.5978	546.416	29.3193
-37.5923	547.626	29.3877
-37.5853	550.641	29.4561
-37.5793	548.874	29.5244
-37.5749	550.589	29.5928
-37.5686	554.963	29.6611
-37.5638	552.66	29.7295
-37.5572	553.437	29.7979
-37.5519	554.939	29.8662
-37.5462	551.287	29.93457
-37.5402	545.591	30.00293
-37.5355	546.831	30.0713
-37.5295	549.013	30.1396
-37.5237	548.694	30.208
-37.51833	550.729	30.2764
-37.513	553.993	30.3447
-37.5066	554.274	30.4131
-37.5009	554.994	30.4814
-37.4946	554.031	30.5498
-37.4896	552.465	30.6182
-37.4825	546.153	30.6865
-37.478	548.699	30.7549
-37.4723	548.804	30.8232
-37.4663	546.936	30.8916
-37.46	548.8324	30.96
-37.4559	551.38	31.02832
-37.4494	553.4986	31.09668
-37.4433	555.2525	31.165
-37.4383	554.22	31.2334
-37.4331	550.752	31.3018
-37.4268	549.153	31.3701
-37.4215	548.649	31.4385
-37.4157	548.936	31.5068
-37.4096	546.949	31.5752
-37.40377	547.116	31.6436
-37.39782	547.699	31.7119
-37.3924	552.414	31.7803
-37.3874	554.735	31.8486
-37.3816	554.63	31.917
-37.3755	551.111	31.9854
-37.3703	549.1228	32.0537
-37.3635	550.628	32.12207
-37.35881	548.636	32.19043
-37.35181	544.419	32.2588
-37.34594	547.232	32.3271
-37.3413	546.434	32.3955
-37.3358	550.569	32.4639
-37.3307	553.124	32.5322
-37.3249	552.547	32.6006
-37.318	551.629	32.6689
-37.3128	552.094	32.7373
-37.3077	551.555	32.8057
-37.3009	547.145	32.874
-37.2953	544.81	32.9424
-37.2896	547.337	33.0107
-37.2843	544.899	33.0791
-37.2775	547.421	33.1475
-37.2735	550.767	33.21582
-37.2677	551.459	33.28418
-37.2608	549.4809	33.3525
-37.2558	550.285	33.4209
-37.2512	553.7417	33.4893
-37.2436	547.335	33.5576
-37.2382	546.061	33.626
-37.23362	546.574	33.6943
-37.227	544.528	33.7627
-37.2213	546.132	33.8311
-37.2169	550.307	33.8994
-37.2111	550.86	33.9678
-37.2041	547.835	34.0361
-37.1984	550.953	34.1045
-37.1938	552.999	34.1729
-37.1875	548.981	34.2412
-37.1818	546.189	34.30957
-37.1766	545.45	34.37793
-37.1697	545.051	34.4463
-37.1648	545.415	34.5146
-37.1586	548.253	34.583
-37.1527	549.173	34.6514
-37.1471	546.608	34.7197
-37.1422	550.831	34.7881
-37.1357	552.294	34.8564
-37.1301	548.459	34.9248
-37.126	548.739	34.9932
-37.1187	546.829	35.0615
-37.1138	544.799	35.1299
-37.1087	546.175	35.1982
-37.102	546.656	35.2666
-37.0953	546.35	35.335
-37.08984	546.2677	35.40332
-37.0845	550.653	35.47168
-37.079	551.386	35.54
-37.0737	548.931	35.6084
-37.068	548.438	35.6768
-37.0628	546.456	35.7451
-37.0568	546.929	35.8135
-37.05114	545.979	35.8818
-37.0451	546.061	35.9502
-37.03986	545.7381	36.0186
-37.0329	545.054	36.0869
-37.0279	550.716	36.1553
-37.0234	549.975	36.2236
-37.0164	550.538	36.292
-37.0108	550.367	36.3604
-37.00544	548.097	36.4287
-37	546.121	36.49707
-36.9938	546.466	36.56543
-36.9892	545.0318	36.6338
-36.9822	542.95	36.7021
-36.9771	542.054	36.7705
-36.9713	549.524	36.8389
-36.9661	548.018	36.9072
-36.9597	549.052	36.9756
-36.954	550.285	37.0439
-36.9481	548.723	37.1123
-36.9429	547.758	37.1807
-36.9357	547.767	37.249
-36.9318	544.4256	37.3174
-36.9257	540.075	37.3857
-36.92	540.25	37.4541
-36.9133	548.654	37.5225
-36.9084	547.364	37.59082
-36.9019	547.034	37.65918
-36.897	550.812	37.7275
-36.8908	549.266	37.7959
-36.886	549.273	37.8643
-36.8795	547.222	37.9326
-36.874	545.946	38.001
-36.8679	540.61	38.0693
-36.8636	540.918	38.1377
-36.8575	545.932	38.2061
-36.8521	546.003	38.2744
-36.8464	545.044	38.3428
-36.8394	548.8	38.4111
-36.8341	548.798	38.4795
-36.8293	549.123	38.5479
-36.82349	547.8006	38.6162
-36.8182	545.64	38.68457
-36.8112	541.367	38.75293
-36.80529	541.271	38.8213
-36.8009	543.573	38.8896
-36.7947	545.903	38.958
-36.7874	545.989	39.0264
-36.7826	548.176	39.0947
-36.7768	548.718	39.1631
-36.7704	549.548	39.2314
-36.767	549.018	39.2998
-36.76033	547.005	39.3682
-36.7535	540.963	39.4365
-36.7485	542.774	39.5049
-36.7428	543.299	39.5732
-36.737	542.608	39.6416
-36.7317	544.467	39.71
-36.7262	545.932	39.77832
-36.7203	548.534	39.84668
-36.7144	550.739	39.915
-36.7094	550.838	39.9834
-36.7073	542.485	40.0127

Data Header:			0.254_solid_dimension_typeiv_4545_r0			Time:	56.4512	s	4/13/2019 8:35:53 PM
Data Acquisition:	Timed
Station Name:	ft40.cfg
Test File Name:	monotonic_0.2540_typeiv_solid_4545_dimension.tst
Displacement	Force	Running Time
mm	N	s
-36.7065	546.217	40.0225
-36.7005	543.602	40.0811
-36.696	544.781	40.1396
-36.6912	543.305	40.1982
-36.6864	543.448	40.2568
-36.6804	545.31	40.31543
-36.6763	545.137	40.374
-36.6708	546.67	40.4326
-36.6671	546.979	40.4912
-36.66151	551.083	40.5498
-36.6569	547.725	40.6084
-36.6521	551.621	40.667
-36.6486	547.651	40.7256
-36.6422	548.509	40.78418
-36.6373	547.162	40.8428
-36.6324	545.151	40.9014
-36.6289	544.651	40.96
-36.623	544.62	41.0186
-36.6183	543.019	41.0771
-36.6118	538.678	41.1357
-36.6084	541.638	41.1943
-36.6038	540.757	41.25293
-36.5981	544.88	41.3115
-36.594	543.314	41.3701
-36.5884	548.197	41.4287
-36.5835	545.2395	41.4873
-36.5794	547.08	41.5459
-36.57391	550.219	41.6045
-36.5696	545.906	41.6631
-36.5647	547.016	41.72168
-36.5597	546.952	41.7803
-36.5552	545.097	41.8389
-36.5501	543.068	41.8975
-36.54512	543.706	41.9561
-36.5396	541.4903	42.0146
-36.5352	541.95	42.0732
-36.5309	542.583	42.1318
-36.5256	542.037	42.19043
-36.5205	545.175	42.249
-36.5151	544.947	42.3076
-36.5104	547.2348	42.3662
-36.5055	546.659	42.4248
-36.50098	550.3	42.4834
-36.49577	547.248	42.542
-36.4914	550.316	42.6006
-36.4871	547.021	42.65918
-36.4822	546.664	42.7178
-36.4773	542.911	42.7764
-36.4712	545.185	42.835
-36.467	542.887	42.8936
-36.4621	539.432	42.9521
-36.4557	541.833	43.0107
-36.4516	539.456	43.0693
-36.4463	542.213	43.12793
-36.4419	542.2	43.1865
-36.4362	545.031	43.2451
-36.4324	543.917	43.3037
-36.4277	547.559	43.3623
-36.4233	547.077	43.4209
-36.4175	547.977	43.4795
-36.41362	547.555	43.5381
-36.4083	546.586	43.59668
-36.4025	545.219	43.6553
-36.3991	544.417	43.7139
-36.3921	545.648	43.7725
-36.3885	542.919	43.8311
-36.3842	544.002	43.8896
-36.3788	542.056	43.9482
-36.3731	541.193	44.0068
-36.3683	542.707	44.06543
-36.3643	544.26	44.124
-36.3594	544.899	44.1826
-36.3541	544.545	44.2412
-36.3493	548.528	44.2998
-36.3453	544.351	44.3584
-36.3392	550.621	44.417
-36.335	547.744	44.4756
-36.32906	546.823	44.53418
-36.3246	543.689	44.5928
-36.3192	545.711	44.6514
-36.3149	541.641	44.71
-36.3113	541.38	44.7686
-36.3049	542.319	44.8271
-36.2995	539.389	44.8857
-36.29443	540.005	44.9443
-36.29	540.623	45.00293
-36.28566	543.278	45.0615
-36.2808	540.796	45.1201
-36.277	545.531	45.1787
-36.2711	544.516	45.2373
-36.2671	545.801	45.2959
-36.2609	546.957	45.3545
-36.2566	545.952	45.4131
-36.2515	545.504	45.47168
-36.2481	545.429	45.5303
-36.2427	544.405	45.5889
-36.23674	542.98	45.6475
-36.2314	542.928	45.7061
-36.2278	539.552	45.7646
-36.2225	540.123	45.8232
-36.217	542.097	45.8818
-36.2121	542.277	45.94043
-36.208	541.352	45.999
-36.2029	544.094	46.0576
-36.1981	544.227	46.1162
-36.1939	544.983	46.1748
-36.1893	549.288	46.2334
-36.1839	546.135	46.292
-36.1784	549.093	46.3506
-36.1743	545.03	46.40918
-36.1692	546.973	46.4678
-36.1635	540.947	46.5264
-36.1589	541.749	46.585
-36.1545	540.883	46.6436
-36.1484	538.648	46.7021
-36.1434	539.838	46.7607
-36.13792	538.974	46.8193
-36.1339	540.5473	46.87793
-36.1302	538.576	46.9365
-36.1249	544.85	46.9951
-36.12038	541.502	47.0537
-36.1149	546.8576	47.1123
-36.1095	545.038	47.1709
-36.10379	544.848	47.2295
-36.09898	545.044	47.2881
-36.0952	543.856	47.34668
-36.0899	543.636	47.4053
-36.0854	542.822	47.4639
-36.0803	543.4812	47.5225
-36.0755	540.689	47.5811
-36.0712	541.635	47.6396
-36.0665	541.106	47.6982
-36.0619	541.03	47.7568
-36.057	540.419	47.81543
-36.0503	541.586	47.874
-36.047	542.849	47.9326
-36.0421	542.152	47.9912
-36.0364	546.788	48.0498
-36.0325	544.779	48.1084
-36.0265	546.426	48.167
-36.02206	544.711	48.2256
-36.0181	547.248	48.28418
-36.0126	541.319	48.3428
-36.008	543.8606	48.4014
-36.0014	540.958	48.46
-35.9984	539.7973	48.5186
-35.9928	538.718	48.5771
-35.9882	537.925	48.6357
-35.9827	539.647	48.6943
-35.9781	538.478	48.75293
-35.97324	540.9325	48.8115
-35.9686	537.781	48.8701
-35.9629	544.731	48.9287
-35.9584	542.328	48.9873
-35.9537	544.636	49.0459
-35.9485	542.563	49.1045
-35.944	544.971	49.1631
-35.9392	543.021	49.22168
-35.934	543.602	49.2803
-35.93	543.447	49.3389
-35.9252	540.515	49.3975
-35.9186	541.08	49.4561
-35.91497	539.015	49.5146
-35.9092	539.775	49.5732
-35.9056	540.489	49.6318
-35.901	541.989	49.69043
-35.8959	539.058	49.749
-35.89035	542.633	49.8076
-35.88493	543.195	49.8662
-35.88015	543.53	49.9248
-35.8763	545.933	49.9834
-35.8709	544.308	50.042
-35.8666	545.237	50.1006
-35.8614	542.573	50.15918
-35.8562	544.384	50.2178
-35.8517	538.29	50.2764
-35.8453	539.561	50.335
-35.8413	537.076	50.3936
-35.8366	536.197	50.4521
-35.8316	537.595	50.5107
-35.82766	537.842	50.5693
-35.8227	537.264	50.62793
-35.8161	536.112	50.6865
-35.8127	541.409	50.7451
-35.8072	538.9	50.8037
-35.8032	542.852	50.8623
-35.7983	542.2851	50.9209
-35.7926	543.375	50.9795
-35.7877	540.034	51.0381
-35.7829	543.386	51.09668
-35.7784	540.969	51.1553
-35.7738	539.486	51.2139
-35.7689	540.214	51.2725
-35.763	537.24	51.3311
-35.7587	537.5899	51.3896
-35.7536	537.4212	51.4482
-35.7476	536.708	51.5068
-35.7437	536.466	51.56543
-35.739	538.82	51.624
-35.7332	538.782	51.6826
-35.7295	539.865	51.7412
-35.7244	543.033	51.7998
-35.7202	541.73	51.8584
-35.715	543.229	51.917
-35.7097	541.091	51.9756
-35.7048	542.4455	52.03418
-35.7004	537.296	52.0928
-35.69458	539.3476	52.1514
-35.6904	536.546	52.21
-35.6849	534.379	52.2686
-35.6801	534.08	52.3271
-35.67503	533.296	52.3857
-35.6708	532.718	52.4443
-35.6651	533.241	52.50293
-35.6613	535.116	52.5615
-35.6557	532.194	52.6201
-35.6509	537.222	52.6787
-35.646	536.17	52.7373
-35.641	538.177	52.7959
-35.6363	535.985	52.8545
-35.6323	536.678	52.9131
-35.6265	535.464	52.97168
-35.6213	534.99	53.0303
-35.6174	532.44	53.0889
-35.6115	529.513	53.1475
-35.607	529.5791	53.2061
-35.6026	527.3161	53.2646
-35.5968	527.001	53.3232
-35.5924	524.703	53.3818
-35.5888	526.513	53.44043
-35.5823	523.912	53.499
-35.5771	521.829	53.5576
-35.5707	-39.7704	53.6162
-35.5664	-39.55917	53.6748
-35.5612	-38.1749	53.7334
-35.558	-39.8676	53.792
-35.5525	-36.7972	53.8506
-35.5486	-40.2251	53.90918
-35.5429	-39.1609	53.9678
-35.5381	-41.67804	54.0264
-35.5337	-42.3895	54.085
-35.5288	-43.9786	54.1436
-35.5236	-45.1566	54.2021
-35.5189	-44.7661	54.2607
-35.5142	-43.7804	54.3193
-35.5087	-44.2048	54.37793
-35.5042	-46.1307	54.4365
-35.4993	-40.4425	54.4951
-35.4942	-43.8806	54.5537
-35.4894	-39.469	54.6123
-35.4848	-40.4228	54.6709
-35.47974	-38.4353	54.7295
-35.4757	-41.8173	54.7881
-35.4698	-39.6103	54.84668
-35.4657	-40.1386	54.9053
-35.4601	-41.8998	54.9639
-35.4553	-41.6343	55.0225
-35.4513	-43.6201	55.0811
-35.4462	-44.5025	55.1396
-35.4408	-43.7233	55.1982
-35.4351	-43.0037	55.2568
-35.43137	-44.5223	55.31543
-35.4258	-40.7438	55.374
-35.4201	-41.1036	55.4326
-35.4165	-42.66011	55.4912
-35.4114	-37.9931	55.5498
-35.4072	-38.4484	55.6084
-35.4023	-37.7432	55.667
-35.3968	-39.1743	55.7256
-35.3923	-37.3532	55.78418
-35.38802	-42.61932	55.8428
-35.38229	-42.9339	55.9014
-35.3784	-42.4044	55.96
-35.3732	-44.3147	56.0186
-35.367	-45.3298	56.0771
-35.3616	-46.13649	56.1357
-35.35865	-45.5724	56.1943
-35.353	-46.9628	56.25293
-35.3487	-42.4453	56.3115
-35.3431	-44.4296	56.3701
-35.3379	-41.4087	56.4287
-35.3377	-44.387	56.4385