File: data/processed_data_files/tensile/0.254_hd_uprint_typeiv_4545_r(1).dat
MTS793|BTW|ENU|1|2|.|/|:|1|0|0|A

Data Header:			0.254_hd_uprint_typeiv_4545_r0			Time:	20.02002	s	4/13/2019 7:12:10 PM
Data Acquisition:	Timed
Station Name:	ft40.cfg
Test File Name:	monotonic_0.2540_typeiv_hd_4545_uprint.tst
Displacement	Force	Running Time
mm	N	s
-40.0428	-102.098	0.0236816
-40.0394	-113.1226	0.092041
-40.0355	-115.687	0.1604
-40.0296	-117.695	0.22876
-40.0248	-112.87	0.297119
-40.0171	-106.127	0.365479
-40.01189	-96.4211	0.433838
-40.0063	-87.0409	0.502197
-40.0011	-78.5989	0.570557
-39.9955	-69.1619	0.638916
-39.989	-68.3612	0.707275
-39.9841	-70.2347	0.775635
-39.9794	-73.1267	0.843994
-39.9724	-78.7051	0.912354
-39.9665	-75.9876	0.980713
-39.96104	-73.6732	1.04907
-39.9552	-68.23	1.11743
-39.9499	-57.9953	1.185791
-39.9445	-45.0644	1.25415
-39.9385	-33.7799	1.32251
-39.9318	-30.2419	1.39087
-39.927	-28.7318	1.45923
-39.9213	-32.07988	1.52759
-39.9149	-35.925	1.59595
-39.91066	-37.11977	1.66431
-39.9038	-38.1425	1.732666
-39.8988	-35.427	1.80103
-39.8933	-27.9168	1.86938
-39.8873	-13.7848	1.93774
-39.8815	-2.08464	2.0061
-39.8761	4.7199	2.07446
-39.8694	10.0615	2.14282
-39.8643	7.186069	2.21118
-39.8583	4.91547	2.279541
-39.8527	1.49466	2.3479
-39.8468	-0.284349	2.41626
-39.8418	-2.5738	2.48462
-39.8371	3.76299	2.55298
-39.8296	16.732	2.62134
-39.8242	26.7356	2.6897
-39.8187	37.4939	2.75806
-39.8135	45.0801	2.826416
-39.8069	46.1743	2.89478
-39.8004	46.1152	2.96313
-39.79615	43.4913	3.03149
-39.7909	37.7829	3.09985
-39.7846	33.1471	3.16821
-39.7795	37.9559	3.23657
-39.7732	49.3787	3.30493
-39.76796	55.8566	3.373291
-39.7616	68.47332	3.44165
-39.7554	78.3933	3.51001
-39.7506	82.1135	3.57837
-39.7446	84.5484	3.64673
-39.7389	84.1031	3.71509
-39.73418	76.4297	3.78345
-39.7286	72.56	3.85181
-39.7228	75.2909	3.920166
-39.7162	80.495	3.98853
-39.71	86.2762	4.05688
-39.7047	98.8917	4.12524
-39.69817	109.338	4.1936
-39.6933	115.116	4.26196
-39.68837	120.889	4.33032
-39.6809	122.531	4.39868
-39.6765	116.699	4.467041
-39.6714	110.664	4.5354
-39.666	112.366	4.60376
-39.65934	112.908	4.67212
-39.6531	117.084	4.74048
-39.6477	127.6177	4.80884
-39.64222	140.524	4.8772
-39.6361	147.746	4.94556
-39.6305	156.201	5.013916
-39.6271	158.993	5.08228
-39.62	153.587	5.15063
-39.6144	150.106	5.21899
-39.6085	151.588	5.28735
-39.6024	150.405	5.35571
-39.5971	149.934	5.42407
-39.5917	158.807	5.49243
-39.58482	167.3154	5.560791
-39.5801	178.009	5.62915
-39.5735	187.563	5.69751
-39.5685	192.025	5.76587
-39.56358	190.833	5.83423
-39.5572	190.331	5.90259
-39.5513	190.33	5.97095
-39.5463	186.157	6.03931
-39.5394	186.546	6.107666
-39.5337	190.6266	6.17603
-39.5297	195.66	6.24438
-39.5229	206.977	6.31274
-39.5171	219.7681	6.3811
-39.5117	224.687	6.44946
-39.50639	227.831	6.51782
-39.5007	229.293	6.58618
-39.494	228.2406	6.654541
-39.4897	222.723	6.7229
-39.48336	220.386	6.79126
-39.4784	222.17	6.85962
-39.4726	227.795	6.92798
-39.4665	236.32	6.99634
-39.4598	248.255	7.0647
-39.4541	256.09	7.13306
-39.44812	260.38	7.201416
-39.4439	266.8	7.26978
-39.4375	266.524	7.33813
-39.43222	261.967	7.40649
-39.427	258.857	7.47485
-39.42	256.269	7.54321
-39.4145	259.626	7.61157
-39.4098	265.661	7.67993
-39.4032	275.321	7.748291
-39.3976	282.595	7.81665
-39.3914	291.367	7.88501
-39.3859	302.778	7.95337
-39.3807	301.243	8.02173
-39.3746	298.389	8.09009
-39.3687	294.505	8.15845
-39.3635	291.873	8.22681
-39.3573	291.4093	8.295166
-39.35257	295.001	8.36353
-39.3466	301.947	8.43188
-39.3407	308.629	8.50024
-39.3353	320.342	8.5686
-39.329	331.782	8.63696
-39.3249	333.216	8.70532
-39.318	334.704	8.77368
-39.31345	331.561	8.842041
-39.3067	328.691	8.9104
-39.3005	326.147	8.97876
-39.2956	327.065	9.04712
-39.2914	329.751	9.11548
-39.2836	337.938	9.18384
-39.2792	350.217	9.2522
-39.2724	361.007	9.32056
-39.2662	365.571	9.388916
-39.2611	369.758	9.45728
-39.2555	367.189	9.52563
-39.2492	362.776	9.59399
-39.24498	360.5347	9.66235
-39.2383	358.113	9.73071
-39.2309	357.424	9.79907
-39.227	364.141	9.86743
-39.2215	378.546	9.935791
-39.2154	387.645	10.00415
-39.20932	395.946	10.07251
-39.2044	401.55	10.1409
-39.1973	400.704	10.2092
-39.1922	398.417	10.2776
-39.187	394.929	10.3459
-39.1826	390.537	10.4143
-39.1758	387.936	10.4827
-39.1705	392.492	10.551
-39.1641	402.685	10.6194
-39.1584	412.12	10.6877
-39.1527	423.024	10.7561
-39.1466	430.071	10.8245
-39.1409	432.085	10.8928
-39.136	432.481	10.9612
-39.131	429.229	11.0295
-39.1232	422.929	11.0979
-39.1194	417.374	11.16626
-39.1134	422.233	11.2346
-39.1078	428.313	11.303
-39.1014	435.577	11.3713
-39.0959	447.6441	11.4397
-39.0903	456.078	11.5081
-39.0833	460.543	11.5764
-39.0787	463.782	11.6448
-39.0735	460.466	11.7131
-39.0673	452.369	11.7815
-39.062	448.139	11.8499
-39.0568	451.81	11.9182
-39.0498	451.787	11.9866
-39.0441	459.3374	12.0549
-39.0394	470.56	12.1233
-39.0332	478.65	12.19165
-39.0274	487.1615	12.26001
-39.0229	491.352	12.3284
-39.0172	490.863	12.3967
-39.01	483.1897	12.4651
-39.00404	479.754	12.5334
-38.9992	479.865	12.6018
-38.9936	477.997	12.6702
-38.989	482.068	12.7385
-38.9825	491.965	12.8069
-38.97625	498.205	12.8752
-38.9709	508.635	12.9436
-38.9647	516.923	13.012
-38.9597	516.401	13.0803
-38.953	510.678	13.1487
-38.9473	509.002	13.217
-38.9426	507.671	13.2854
-38.9357	502.438	13.35376
-38.9309	503.396	13.4221
-38.924	508.433	13.4905
-38.9203	513.059	13.5588
-38.9135	523.429	13.6272
-38.908	533.264	13.6956
-38.902	535.546	13.7639
-38.896	536.268	13.8323
-38.8916	537.267	13.9006
-38.885	535.079	13.969
-38.8787	527.439	14.0374
-38.8756	523.662	14.1057
-38.8689	525.522	14.1741
-38.8625	528.877	14.2424
-38.8564	535.341	14.3108
-38.8518	546.192	14.37915
-38.8436	549.923	14.44751
-38.8396	552.572	14.5159
-38.83392	558.172	14.5842
-38.8284	553.849	14.6526
-38.8227	546.566	14.7209
-38.817	542.915	14.7893
-38.81036	538.316	14.8577
-38.80545	539.511	14.926
-38.8003	544.747	14.9944
-38.7931	552.167	15.0627
-38.7885	555.283	15.1311
-38.7822	563.294	15.1995
-38.7763	569.224	15.2678
-38.7704	566.476	15.3362
-38.76548	558.73	15.4045
-38.7601	555.816	15.4729
-38.7544	548.8338	15.54126
-38.7481	544.424	15.6096
-38.74239	547.44	15.678
-38.7374	551.459	15.7463
-38.7315	556.315	15.8147
-38.7255	565.427	15.8831
-38.7207	571.486	15.9514
-38.7136	570.4455	16.0198
-38.7082	565.909	16.0881
-38.7033	562.1283	16.1565
-38.69722	553.576	16.2249
-38.6911	546.263	16.2932
-38.686	545.085	16.3616
-38.6804	545.341	16.4299
-38.6752	547.704	16.4983
-38.6683	560.848	16.56665
-38.6623	566.1	16.63501
-38.6568	566.812	16.7034
-38.6515	567.125	16.7717
-38.6453	561.7771	16.8401
-38.6386	553.379	16.9084
-38.63451	546.056	16.9768
-38.6291	540.87	17.0452
-38.62191	536.665	17.1135
-38.6163	540.175	17.1819
-38.6118	551.76	17.2502
-38.6059	557.119	17.3186
-38.5999	560.634	17.387
-38.5923	563.1217	17.4553
-38.5891	560.105	17.5237
-38.583	553.909	17.592
-38.5771	545.374	17.6604
-38.5722	536.765	17.72876
-38.5654	532.346	17.7971
-38.5609	532.861	17.8655
-38.5535	542.197	17.9338
-38.5483	547.683	18.0022
-38.5433	553.074	18.0706
-38.5359	558.315	18.1389
-38.5314	558.519	18.2073
-38.5265	554.916	18.2756
-38.5196	545.1626	18.344
-38.5146	537.201	18.4124
-38.5086	528.91	18.4807
-38.50275	529.075	18.5491
-38.4977	533.657	18.6174
-38.4915	539.051	18.6858
-38.4863	546.67	18.75415
-38.4805	551.201	18.82251
-38.476	554.819	18.8909
-38.4695	553.253	18.9592
-38.4624	547.36	19.0276
-38.4566	536.586	19.0959
-38.4523	529.562	19.1643
-38.4464	527.929	19.2327
-38.43935	526.5163	19.301
-38.4356	530.123	19.3694
-38.4288	538.908	19.4377
-38.4235	543.8	19.5061
-38.4178	550.0282	19.5745
-38.4111	550.77	19.6428
-38.40543	546.523	19.7112
-38.3999	537.591	19.7795
-38.3949	530.672	19.8479
-38.3893	527.269	19.91626
-38.3837	522.707	19.9846
-38.3805	545.868	20.0139

Data Header:			0.254_hd_uprint_typeiv_4545_r0			Time:	28.4661	s	4/13/2019 7:12:18 PM
Data Acquisition:	Timed
Station Name:	ft40.cfg
Test File Name:	monotonic_0.2540_typeiv_hd_4545_uprint.tst
Displacement	Force	Running Time
mm	N	s
-38.38	546.434	20.0237
-38.3777	525.5379	20.053
-38.3749	547.912	20.0823
-38.3731	519.935	20.1116
-38.3695	546.764	20.1409
-38.3683	523.826	20.1702
-38.3658	547.759	20.1995
-38.3636	522.798	20.22876
-38.3601	543.525	20.2581
-38.3573	529.748	20.2874
-38.3566	537.604	20.31665
-38.3537	530.31	20.3459
-38.3502	532.741	20.3752
-38.349	539.504	20.4045
-38.3467	528.373	20.4338
-38.3433	539.743	20.4631
-38.3412	524.807	20.4924
-38.3382	545.193	20.5217
-38.3369	521.4682	20.551
-38.3341	542.447	20.5803
-38.331	521.944	20.6096
-38.3282	546.502	20.6389
-38.3275	521.949	20.6682
-38.32444	540.709	20.69751
-38.321	524.5769	20.7268
-38.3187	538.324	20.7561
-38.3168	530.726	20.7854
-38.3138	534.956	20.8147
-38.31089	535.538	20.844
-38.3079	527.334	20.8733
-38.3073	538.162	20.9026
-38.3048	525.223	20.9319
-38.302	541.671	20.9612
-38.2987	521.826	20.9905
-38.2984	546.198	21.0198
-38.2952	522.369	21.0491
-38.2925	542.475	21.0784
-38.2894	520.872	21.1077
-38.2873	544.2359	21.137
-38.28537	524.548	21.16626
-38.2826	537.31	21.1956
-38.2803	526.206	21.2249
-38.2775	535.549	21.25415
-38.2748	530.24	21.2834
-38.2725	526.287	21.3127
-38.2702	537.2171	21.342
-38.2679	525.869	21.3713
-38.2655	538.2901	21.4006
-38.26366	517.7	21.4299
-38.2604	542.242	21.4592
-38.2584	518.514	21.4885
-38.2555	541.929	21.5178
-38.252	516.576	21.5471
-38.2505	544.428	21.5764
-38.2481	519.501	21.6057
-38.2457	540.074	21.63501
-38.2438	520.843	21.6643
-38.2412	536.269	21.6936
-38.2387	526.248	21.7229
-38.2351	531.647	21.7522
-38.234	533.0423	21.7815
-38.2311	524.7558	21.8108
-38.2284	535.676	21.8401
-38.2267	521.083	21.8694
-38.2232	540.963	21.8987
-38.2218	515.744	21.928
-38.21804	544.69	21.9573
-38.2157	517.891	21.9866
-38.2144	544.088	22.0159
-38.212	513.658	22.0452
-38.2089	540.483	22.0745
-38.207	522.446	22.10376
-38.2039	538.642	22.1331
-38.2033	520.039	22.1624
-38.19973	532.715	22.19165
-38.1961	527.744	22.2209
-38.1951	527.567	22.2502
-38.1924	531.434	22.2795
-38.191	525.649	22.3088
-38.1876	536.762	22.3381
-38.1856	516.916	22.3674
-38.1833	537.431	22.3967
-38.1789	517.082	22.426
-38.1777	540.924	22.4553
-38.1753	516.23	22.4846
-38.1716	540.494	22.5139
-38.17004	517.313	22.5432
-38.1681	536.945	22.57251
-38.1652	520.002	22.6018
-38.1618	535.027	22.6311
-38.1602	524.663	22.6604
-38.1576	528.578	22.6897
-38.1557	529.668	22.719
-38.1535	525.326	22.7483
-38.15144	530.595	22.7776
-38.1489	518.8894	22.8069
-38.1457	539.519	22.8362
-38.1429	517.669	22.8655
-38.1408	536.861	22.8948
-38.1384	515.233	22.9241
-38.1362	539.317	22.9534
-38.1342	516.651	22.9827
-38.131	536.32	23.012
-38.1278	519.116	23.04126
-38.12656	536.784	23.0706
-38.1244	522.934	23.0999
-38.1218	527.338	23.12915
-38.1189	527.318	23.1584
-38.1169	524.816	23.1877
-38.1134	530.935	23.217
-38.1115	519.333	23.2463
-38.10775	537.542	23.2756
-38.1062	515.725	23.3049
-38.1041	536.704	23.3342
-38.1015	512.258	23.3635
-38.0985	539.845	23.3928
-38.0961	514.813	23.4221
-38.0943	538.572	23.4514
-38.0923	515.954	23.4807
-38.0893	534.461	23.51001
-38.08638	518.027	23.5393
-38.08429	531.907	23.5686
-38.0817	524.307	23.5979
-38.0798	524.985	23.6272
-38.0783	528.717	23.6565
-38.0757	522.7959	23.6858
-38.0728	532.598	23.7151
-38.0688	513.677	23.7444
-38.068	536.074	23.7737
-38.065	515.416	23.803
-38.0633	539.547	23.8323
-38.0597	510.331	23.8616
-38.0581	540.024	23.8909
-38.0547	513.935	23.9202
-38.0521	535.6662	23.9495
-38.0503	512.603	23.97876
-38.04929	534.097	24.0081
-38.0466	520.011	24.0374
-38.0433	527.888	24.06665
-38.0406	520.695	24.0959
-38.0374	523.619	24.1252
-38.0358	529.496	24.1545
-38.0334	518.454	24.1838
-38.0317	531.483	24.2131
-38.0293	515.96	24.2424
-38.0263	533.901	24.2717
-38.0232	510.624	24.301
-38.02235	537.062	24.3303
-38.018	512.605	24.3596
-38.016	535.683	24.3889
-38.0137	513.208	24.4182
-38.0124	533.965	24.44751
-38.0101	514.3291	24.4768
-38.0067	530.573	24.5061
-38.0055	520.792	24.5354
-38.0024	525.929	24.5647
-37.999	523.044	24.594
-37.9965	519.619	24.6233
-37.9949	530.613	24.6526
-37.9934	516.12	24.6819
-37.9898	530.445	24.7112
-37.9875	513.389	24.7405
-37.98476	538.526	24.7698
-37.9819	509.981	24.7991
-37.9792	532.189	24.8284
-37.9773	510.1362	24.8577
-37.9749	535.065	24.887
-37.9709	513.765	24.91626
-37.9701	528.258	24.9456
-37.967	519.3595	24.9749
-37.9645	525.316	25.00415
-37.9631	520.553	25.0334
-37.9605	520.306	25.0627
-37.9577	527.434	25.092
-37.95425	516.126	25.1213
-37.9519	531.92	25.1506
-37.9503	512.706	25.1799
-37.94854	532.464	25.2092
-37.9458	509.639	25.2385
-37.9425	535.567	25.2678
-37.9397	509.972	25.2971
-37.9382	533.1	25.3264
-37.9363	510.943	25.3557
-37.9325	531.089	25.38501
-37.93	515.119	25.4143
-37.9283	524.4494	25.4436
-37.9263	519.531	25.4729
-37.9236	523.349	25.5022
-37.9207	523.116	25.5315
-37.9201	513.558	25.5608
-37.9158	527.472	25.5901
-37.9139	515.5022	25.6194
-37.9108	533.269	25.6487
-37.9076	506.924	25.678
-37.9055	533.85	25.7073
-37.9047	508.706	25.7366
-37.90065	531.864	25.7659
-37.9	504.999	25.7952
-37.896	532.869	25.8245
-37.8939	511.445	25.85376
-37.8923	527.285	25.8831
-37.8895	510.935	25.9124
-37.8855	522.831	25.94165
-37.8834	516.6745	25.9709
-37.8827	516.415	26.0002
-37.8799	523.694	26.0295
-37.8769	512.563	26.0588
-37.8749	525.903	26.0881
-37.8721	505.501	26.1174
-37.87064	527.258	26.1467
-37.8669	500.207	26.176
-37.8641	527.214	26.2053
-37.8627	501.44	26.2346
-37.8602	526.168	26.2639
-37.8574	496.504	26.2932
-37.8536	519.563	26.32251
-37.8535	501.507	26.3518
-37.8503	514.138	26.3811
-37.8473	499.791	26.4104
-37.8441	506.594	26.4397
-37.8419	504.294	26.469
-37.8403	496.047	26.4983
-37.8374	499.924	26.5276
-37.8359	486.232	26.5569
-37.8322	500.465	26.5862
-37.8315	473.161	26.6155
-37.8272	487.617	26.6448
-37.8228	-56.2756	26.6741
-37.8228	-28.4705	26.7034
-37.8193	-55.9512	26.7327
-37.8161	-32.9865	26.762
-37.816	-51.3503	26.79126
-37.8132	-34.3634	26.8206
-37.81002	-49.371	26.8499
-37.8079	-38.25732	26.87915
-37.8058	-46.1685	26.9084
-37.8027	-41.556	26.9377
-37.7999	-41.1708	26.967
-37.7981	-44.2655	26.9963
-37.7954	-38.9453	27.0256
-37.7934	-49.0192	27.0549
-37.7901	-33.5634	27.0842
-37.7882	-50.4012	27.1135
-37.7857	-32.726	27.1428
-37.78421	-52.1399	27.1721
-37.7808	-29.99824	27.2014
-37.7782	-51.638	27.2307
-37.7764	-35.5955	27.26001
-37.7739	-50.5928	27.2893
-37.7728	-33.2874	27.3186
-37.7694	-47.4172	27.3479
-37.7666	-41.4378	27.3772
-37.7639	-43.64584	27.4065
-37.7611	-42.0183	27.4358
-37.7601	-39.9249	27.4651
-37.7564	-51.1096	27.4944
-37.7545	-32.9209	27.5237
-37.7521	-49.9696	27.553
-37.7495	-32.1648	27.5823
-37.7468	-56.2522	27.6116
-37.7443	-30.9808	27.6409
-37.74181	-55.5904	27.6702
-37.7398	-30.1875	27.6995
-37.7377	-52.5563	27.72876
-37.73497	-31.6908	27.7581
-37.7323	-49.909	27.7874
-37.73	-37.0489	27.81665
-37.7279	-46.8708	27.8459
-37.7254	-39.226	27.8752
-37.7226	-41.0566	27.9045
-37.72031	-42.6993	27.9338
-37.7186	-36.9514	27.9631
-37.7151	-52.3554	27.9924
-37.7114	-33.9127	28.0217
-37.7112	-51.5235	28.051
-37.7072	-29.9116	28.0803
-37.707	-55.8675	28.1096
-37.7029	-29.4338	28.1389
-37.6998	-52.4353	28.1682
-37.6987	-31.3951	28.19751
-37.696	-55.82098	28.2268
-37.6934	-32.5169	28.2561
-37.691	-47.0992	28.2854
-37.6889	-36.833	28.3147
-37.6855	-47.9311	28.344
-37.6835	-41.8418	28.3733
-37.68092	-39.6173	28.4026
-37.6783	-47.4566	28.4319
-37.6767	-40.1275	28.4612