File: data/processed_data_files/tensile/0.254_hd_uprint_typeiv_4545_r(8).dat
MTS793|BTW|ENU|1|2|.|/|:|1|0|0|A

Data Header:			0.254_hd_uprint_typeiv_4545_r0			Time:	20.0176	s	4/13/2019 7:50:51 PM
Data Acquisition:	Timed
Station Name:	ft40.cfg
Test File Name:	monotonic_0.2540_typeiv_hd_4545_uprint.tst
Displacement	Force	Running Time
mm	N	s
-40.0344	-277.482	0.0227051
-40.0351	-277.646	0.0910645
-40.0274	-274.272	0.159424
-40.0233	-271.466	0.2277832
-40.01757	-267.2	0.296143
-40.0121	-267.811	0.364502
-40.0072	-265.781	0.432861
-40.0012	-263.816	0.5012207
-39.9937	-262.1	0.56958
-39.989	-259.5	0.637939
-39.98362	-250.666	0.706299
-39.9783	-247.222	0.7746582
-39.9719	-244.145	0.843018
-39.96698	-238.9628	0.911377
-39.9609	-235.714	0.979736
-39.9548	-232.279	1.0481
-39.9496	-231.122	1.11646
-39.94352	-230.8425	1.18481
-39.9387	-232.197	1.25317
-39.9317	-225.988	1.32153
-39.92577	-219.485	1.38989
-39.9208	-216.145	1.458252
-39.9141	-209.787	1.52661
-39.9086	-205.421	1.59497
-39.9039	-202.315	1.66333
-39.8973	-197.672	1.73169
-39.89212	-196.677	1.80005
-39.8861	-199.416	1.86841
-39.8808	-196.699	1.93677
-39.8752	-191.349	2.005127
-39.8697	-189.227	2.07349
-39.8641	-185.047	2.14185
-39.8587	-177.042	2.21021
-39.8524	-173.504	2.27856
-39.8462	-167.609	2.34692
-39.8411	-162.9279	2.41528
-39.8367	-162.29	2.48364
-39.8302	-164.879	2.552002
-39.8248	-161.442	2.62036
-39.8192	-156.369	2.68872
-39.8132	-155.492	2.75708
-39.8077	-150.634	2.82544
-39.8009	-145.091	2.8938
-39.79636	-142.622	2.96216
-39.7891	-136.626	3.03052
-39.78418	-130.7	3.098877
-39.7787	-129.503	3.16724
-39.7721	-130.952	3.2356
-39.7669	-126.313	3.30396
-39.76189	-123.979	3.37231
-39.7555	-124.158	3.44067
-39.7505	-119.838	3.50903
-39.7434	-113.0071	3.57739
-39.7382	-110.755	3.645752
-39.7335	-103.016	3.71411
-39.7268	-97.73642	3.78247
-39.7206	-95.5151	3.85083
-39.7178	-98.7926	3.91919
-39.7093	-91.0655	3.98755
-39.7047	-89.2994	4.05591
-39.6984	-89.76123	4.12427
-39.6935	-86.9839	4.192627
-39.6882	-80.7097	4.26099
-39.6822	-76.2892	4.32935
-39.6758	-71.2817	4.39771
-39.6701	-66.2825	4.46606
-39.6642	-63.5778	4.53442
-39.6594	-62.7356	4.60278
-39.6548	-54.6489	4.67114
-39.6463	-55.6274	4.739502
-39.6411	-56.3487	4.80786
-39.636	-52.5284	4.87622
-39.6307	-47.6085	4.94458
-39.6249	-45.0851	5.01294
-39.6192	-38.6458	5.0813
-39.61388	-33.1813	5.14966
-39.6075	-32.7413	5.21802
-39.603	-27.38221	5.286377
-39.597	-21.2165	5.35474
-39.59029	-21.1995	5.4231
-39.5857	-18.44915	5.49146
-39.5791	-18.3061	5.55981
-39.5736	-16.1825	5.62817
-39.5672	-13.7328	5.69653
-39.5617	-7.71102	5.76489
-39.5557	-5.20862	5.833252
-39.5506	-1.24713	5.90161
-39.5446	4.74491	5.96997
-39.5389	11.2064	6.03833
-39.533	11.3418	6.10669
-39.5278	13.9309	6.17505
-39.5228	14.5237	6.24341
-39.5163	15.79	6.31177
-39.5109	21.4858	6.380127
-39.5056	23.8001	6.44849
-39.5003	26.137	6.51685
-39.4937	30.7626	6.58521
-39.4883	40.1094	6.65356
-39.4821	42.4651	6.72192
-39.4761	44.5621	6.79028
-39.4711	49.8652	6.85864
-39.4649	49.55595	6.927002
-39.4593	50.9269	6.99536
-39.4529	53.3694	7.06372
-39.4481	56.44659	7.13208
-39.4416	55.8596	7.20044
-39.4364	61.8988	7.2688
-39.4317	71.1499	7.33716
-39.4261	73.5513	7.40552
-39.4193	77.8502	7.473877
-39.41357	82.5041	7.54224
-39.4084	80.6667	7.6106
-39.4026	83.5389	7.67896
-39.3963	87.7931	7.74731
-39.3914	86.6796	7.81567
-39.3859	86.1601	7.88403
-39.3795	95.803	7.95239
-39.3746	102.619	8.020752
-39.368	102.6804	8.08911
-39.3623	109.55	8.15747
-39.3562	115.618	8.22583
-39.3525	113.665	8.29419
-39.3467	118.194	8.36255
-39.3398	120.402	8.43091
-39.3348	121.68	8.49927
-39.3284	119.749	8.567627
-39.3227	126.932	8.63599
-39.3175	133.03	8.70435
-39.3116	133.9361	8.77271
-39.3061	139.658	8.84106
-39.3005	145.933	8.90942
-39.2944	148.813	8.97778
-39.2874	150.807	9.04614
-39.2828	151.748	9.114502
-39.27673	151.3065	9.18286
-39.2723	150.915	9.25122
-39.2657	159.0423	9.31958
-39.2596	162.4	9.38794
-39.2551	166.018	9.4563
-39.2494	172.083	9.52466
-39.2441	175.818	9.59302
-39.2372	179.356	9.661377
-39.2324	183.117	9.72974
-39.2256	185.568	9.7981
-39.2205	182.487	9.86646
-39.2149	184.374	9.93481
-39.209	189.725	10.0032
-39.2029	192.916	10.0715
-39.1975	196.57	10.1399
-39.1926	201.888	10.2083
-39.1853	206.554	10.2766
-39.1793	209.74	10.345
-39.1744	216.769	10.41333
-39.1697	215.556	10.4817
-39.1639	215.482	10.55
-39.1575	217.531	10.6184
-39.1519	219.743	10.6868
-39.1467	221.749	10.7551
-39.1405	225.0135	10.8235
-39.1346	229.861	10.8918
-39.1286	235.036	10.9602
-39.1236	242.468	11.0286
-39.11673	246.502	11.0969
-39.1134	246.162	11.1653
-39.1064	249.253	11.2336
-39.1008	253.407	11.302
-39.09444	251.472	11.3704
-39.0894	253.506	11.4387
-39.084	257.107	11.50708
-39.0781	259.763	11.5754
-39.0723	264.112	11.6438
-39.0674	271.009	11.7122
-39.0602	274.277	11.7805
-39.0559	276.385	11.8489
-39.0494	277.408	11.9172
-39.04332	284.162	11.9856
-39.038	283.057	12.054
-39.03249	281.9201	12.1223
-39.0263	287.897	12.1907
-39.02087	289.041	12.259
-39.016	294.2569	12.3274
-39.0103	300.9325	12.3958
-39.005	302.5079	12.4641
-38.9978	306.006	12.5325
-38.9918	309.835	12.60083
-38.987	313.861	12.6692
-38.9812	311.386	12.7375
-38.97401	313.915	12.8059
-38.96825	317.91	12.8743
-38.9645	318.261	12.9426
-38.9584	321.562	13.011
-38.953	328.04	13.0793
-38.9463	331.215	13.1477
-38.9413	332.111	13.2161
-38.9357	339.948	13.2844
-38.9295	343.965	13.3528
-38.9244	342.106	13.4211
-38.9192	343.2496	13.4895
-38.9134	345.441	13.5579
-38.9072	347.2392	13.6262
-38.9016	350.673	13.69458
-38.89595	353.554	13.7629
-38.8901	355.343	13.8313
-38.8854	360.436	13.8997
-38.87899	365.9884	13.968
-38.8727	371.858	14.0364
-38.8673	371.713	14.1047
-38.8609	371.1976	14.1731
-38.8553	374.035	14.2415
-38.8508	375.0701	14.3098
-38.844	375.675	14.3782
-38.8386	380.679	14.4465
-38.8321	382.438	14.5149
-38.8275	386.32	14.5833
-38.82056	394.343	14.6516
-38.8168	396.402	14.72
-38.8097	400.086	14.78833
-38.8051	401.253	14.8567
-38.7977	400.968	14.925
-38.7932	403.118	14.9934
-38.7881	404.363	15.0618
-38.7818	403.781	15.1301
-38.77663	405.988	15.1985
-38.77042	411.098	15.2668
-38.7638	416.872	15.3352
-38.7584	419.839	15.4036
-38.7531	424.3974	15.4719
-38.74728	427.135	15.5403
-38.742	426.585	15.6086
-38.73695	428.28	15.677
-38.7311	430.154	15.7454
-38.7244	427.425	15.8137
-38.7187	429.923	15.88208
-38.7127	435.177	15.9504
-38.708	440.987	16.0188
-38.7017	443.892	16.0872
-38.69574	448.496	16.1555
-38.6908	451.035	16.2239
-38.6854	450.673	16.2922
-38.6785	455.618	16.3606
-38.6733	454.702	16.429
-38.6679	451.948	16.4973
-38.6625	451.821	16.5657
-38.6571	456.927	16.634
-38.6498	460.013	16.7024
-38.6447	462.475	16.7708
-38.6403	468.2991	16.8391
-38.63364	471.812	16.9075
-38.6288	472.097	16.97583
-38.6223	475.885	17.0442
-38.6164	475.3508	17.1125
-38.6107	471.991	17.1809
-38.6055	471.991	17.2493
-38.6005	477.281	17.3176
-38.5942	477.2269	17.386
-38.5884	480.828	17.4543
-38.5825	485.649	17.5227
-38.5765	489.291	17.5911
-38.5701	491.652	17.6594
-38.5656	494.049	17.7278
-38.56	493.125	17.7961
-38.5536	489.709	17.8645
-38.5484	491.627	17.9329
-38.5427	494.97	18.0012
-38.5373	493.6611	18.06958
-38.5318	495.203	18.1379
-38.5247	500.894	18.2063
-38.5198	502.812	18.2747
-38.5134	505.462	18.343
-38.5071	508.85	18.4114
-38.5025	508.217	18.4797
-38.4977	504.101	18.5481
-38.49	505.278	18.6165
-38.4856	506.594	18.6848
-38.4799	504.03	18.7532
-38.4745	506.12	18.8215
-38.4674	508.003	18.8899
-38.4633	511.9921	18.9583
-38.4574	514.36	19.0266
-38.4514	515.97	19.095
-38.4459	515.057	19.16333
-38.4409	514.574	19.2317
-38.4337	515.141	19.3
-38.42778	512.951	19.3684
-38.4232	510.651	19.4368
-38.417	511.347	19.5051
-38.4124	509.955	19.5735
-38.4051	513.834	19.6418
-38.40099	514.42	19.7102
-38.3946	517.638	19.7786
-38.3885	515.7356	19.8469
-38.3831	516.345	19.9153
-38.3771	516.298	19.9836
-38.3749	510.659	20.0129

Data Header:			0.254_hd_uprint_typeiv_4545_r0			Time:	40.0176	s	4/13/2019 7:51:11 PM
Data Acquisition:	Timed
Station Name:	ft40.cfg
Test File Name:	monotonic_0.2540_typeiv_hd_4545_uprint.tst
Displacement	Force	Running Time
mm	N	s
-38.3736	515.612	20.0227
-38.3686	517.635	20.0911
-38.3625	517.976	20.1594
-38.357	516.7854	20.2278
-38.352	516.064	20.2961
-38.3464	510.768	20.3645
-38.3399	511.018	20.4329
-38.3339	510.521	20.5012
-38.3285	508.426	20.56958
-38.3221	508.443	20.6379
-38.3163	510.9707	20.7063
-38.3112	513.544	20.7747
-38.3062	514.571	20.843
-38.3002	515.406	20.9114
-38.2946	511.8898	20.9797
-38.2887	509.097	21.0481
-38.2825	509.791	21.1165
-38.2772	508.292	21.1848
-38.2714	505.9126	21.2532
-38.2657	505.1123	21.3215
-38.2596	506.374	21.3899
-38.2534	509.5575	21.4583
-38.2483	511.565	21.5266
-38.2425	510.951	21.595
-38.2364	509.25	21.66333
-38.2315	508.068	21.7317
-38.226	510.08	21.8
-38.2205	505.38	21.8684
-38.2141	503.574	21.9368
-38.2093	502.916	22.0051
-38.2033	502.285	22.0735
-38.1972	503.694	22.1418
-38.1914	507.825	22.2102
-38.186	506.581	22.2786
-38.1803	506.26	22.3469
-38.1739	508.003	22.4153
-38.1686	509.549	22.4836
-38.1622	503.3233	22.552
-38.1583	503.425	22.6204
-38.1517	501.93	22.6887
-38.1465	499.286	22.75708
-38.14011	503.22	22.8254
-38.1343	505.0611	22.8938
-38.1295	502.737	22.9622
-38.1231	503.125	23.0305
-38.1183	506.706	23.0989
-38.1112	506.662	23.1672
-38.1063	501.087	23.2356
-38.1009	502.145	23.304
-38.09631	500.087	23.3723
-38.0889	496.08	23.4407
-38.0834	498.085	23.509
-38.0778	502.193	23.5774
-38.07093	499.912	23.6458
-38.0664	500.038	23.7141
-38.0614	506.203	23.7825
-38.0549	506.096	23.85083
-38.0494	501.303	23.9192
-38.04372	501.6308	23.9875
-38.0379	498.806	24.0559
-38.0319	496.613	24.1243
-38.0252	498.628	24.1926
-38.0197	499.417	24.261
-38.0149	496.402	24.3293
-38.009	498.2757	24.3977
-38.0035	504.677	24.4661
-37.9975	505.34	24.5344
-37.9925	503.364	24.6028
-37.9878	501.519	24.6711
-37.9809	499.255	24.7395
-37.9754	495.822	24.8079
-37.971	493.687	24.8762
-37.9632	495.311	24.94458
-37.9584	492.88	25.0129
-37.9527	496.49	25.0813
-37.9466	500.814	25.1497
-37.9416	500.348	25.218
-37.9359	500.429	25.2864
-37.93	501.644	25.3547
-37.9249	499.3067	25.4231
-37.9185	497.123	25.4915
-37.9119	494.883	25.5598
-37.9072	493.8313	25.6282
-37.9013	492.395	25.6965
-37.8955	495.334	25.7649
-37.8901	496.564	25.8333
-37.8842	498.3493	25.9016
-37.87804	499.946	25.97
-37.872	499.278	26.03833
-37.86655	498.333	26.1067
-37.8617	498.861	26.175
-37.8555	494.232	26.2434
-37.8499	491.761	26.3118
-37.8444	490.611	26.3801
-37.8388	494.2384	26.4485
-37.8328	494.718	26.5168
-37.8278	496.627	26.5852
-37.8209	499.0657	26.6536
-37.8153	497.379	26.7219
-37.8098	500.421	26.7903
-37.8045	499.8985	26.8586
-37.7988	496.896	26.927
-37.793	489.75	26.9954
-37.7871	490.396	27.0637
-37.7817	493.369	27.13208
-37.7772	491.482	27.2004
-37.7693	492.804	27.2688
-37.7652	497.3692	27.3372
-37.7589	496.016	27.4055
-37.7532	498.309	27.4739
-37.7474	499.868	27.5422
-37.7418	496.22	27.6106
-37.7359	489.455	27.679
-37.73069	491.802	27.7473
-37.7239	491.964	27.8157
-37.719	489.0903	27.884
-37.7139	492.868	27.9524
-37.7074	495.981	28.0208
-37.7018	494.392	28.0891
-37.6973	496.825	28.1575
-37.6913	499.833	28.22583
-37.6855	497.2	28.2942
-37.67767	492.043	28.3625
-37.6727	492.851	28.4309
-37.6686	491.6572	28.4993
-37.6612	486.582	28.5676
-37.6553	489.098	28.636
-37.6507	491.992	28.7043
-37.6443	493.187	28.7727
-37.6391	495.761	28.8411
-37.6336	497.436	28.9094
-37.6278	494.681	28.9778
-37.6219	491.978	29.0461
-37.6159	492.627	29.1145
-37.6108	490.766	29.1829
-37.6055	487.1571	29.2512
-37.5993	488.933	29.31958
-37.5936	490.419	29.3879
-37.5879	492.863	29.4563
-37.5818	494.488	29.5247
-37.5766	495.272	29.593
-37.5709	493.922	29.6614
-37.5648	493.903	29.7297
-37.5601	493.882	29.7981
-37.5527	490.581	29.8665
-37.5487	487.616	29.9348
-37.5421	487.69	30.0032
-37.5364	486.405	30.0715
-37.5313	489.4519	30.1399
-37.5254	492.678	30.2083
-37.5207	492.563	30.2766
-37.516	491.351	30.345
-37.50819	493.132	30.41333
-37.503	493.339	30.4817
-37.497	490.7	30.55
-37.4905	488.281	30.6184
-37.4847	486.313	30.6868
-37.47855	485.377	30.7551
-37.4744	487.519	30.8235
-37.4689	490.669	30.8918
-37.4618	487.643	30.9602
-37.4563	489.37	31.0286
-37.451	493.639	31.0969
-37.44558	493.426	31.1653
-37.4396	490.954	31.2336
-37.4345	488.147	31.302
-37.4286	486.93	31.3704
-37.4222	485.327	31.4387
-37.4166	487.657	31.50708
-37.4112	487.379	31.5754
-37.4058	487.125	31.6438
-37.3991	487.074	31.7122
-37.3944	494.0101	31.7805
-37.3893	495.544	31.8489
-37.38348	490.045	31.9172
-37.3779	490.874	31.9856
-37.3719	487.802	32.054
-37.3661	485.968	32.1223
-37.3606	486.377	32.1907
-37.3546	486.167	32.259
-37.34993	482.0394	32.3274
-37.3416	486.127	32.3958
-37.3364	491.162	32.4641
-37.33215	492.271	32.5325
-37.3252	492.304	32.60083
-37.3195	490.257	32.6692
-37.3143	488.372	32.7375
-37.3094	486.523	32.8059
-37.3033	486.136	32.8743
-37.2977	483.045	32.9426
-37.292	482.318	33.011
-37.2864	483.441	33.0793
-37.2802	489.563	33.1477
-37.2759	489.731	33.2161
-37.2684	489.787	33.2844
-37.2638	491.382	33.3528
-37.2572	489.451	33.4211
-37.2514	485.8934	33.4895
-37.2462	485.993	33.5579
-37.2403	483.975	33.6262
-37.2352	481.6	33.69458
-37.2294	482.581	33.7629
-37.2221	488.732	33.8313
-37.2179	487.977	33.8997
-37.2121	487.598	33.968
-37.2064	492.91	34.0364
-37.2011	490.039	34.1047
-37.1947	488.26	34.1731
-37.1891	485.635	34.2415
-37.1834	482.599	34.3098
-37.1774	481.185	34.3782
-37.1711	481.018	34.4465
-37.1669	484.699	34.5149
-37.1608	484.5	34.5833
-37.1552	487.01	34.6516
-37.1491	488.863	34.72
-37.1437	489	34.78833
-37.13723	489.342	34.8567
-37.13105	486.349	34.925
-37.1266	482.723	34.9934
-37.1213	481.222	35.0618
-37.1157	483.852	35.1301
-37.1095	481.535	35.1985
-37.1034	482.634	35.2668
-37.0982	487.4462	35.3352
-37.0919	486.51	35.4036
-37.087	487.721	35.4719
-37.08078	489.65	35.5403
-37.0755	488.214	35.6086
-37.0688	482.311	35.677
-37.0642	480.2951	35.7454
-37.0585	481.4068	35.8137
-37.05286	480.056	35.88208
-37.0473	480.16	35.9504
-37.0416	483.517	36.0188
-37.0352	484.559	36.0872
-37.0287	487.19	36.1555
-37.0235	488.485	36.2239
-37.0166	488.692	36.2922
-37.0137	482.236	36.3606
-37.0074	480.289	36.429
-37.0011	481.373	36.4973
-36.9963	476.2	36.5657
-36.989	478.47	36.634
-36.9852	482.185	36.7024
-36.9781	480.656	36.7708
-36.9724	483.959	36.8391
-36.9673	487.0719	36.9075
-36.9619	486.814	36.97583
-36.9556	481.41	37.0442
-36.9497	480.33	37.1125
-36.9451	480.647	37.1809
-36.93755	475.459	37.2493
-36.9328	475.6879	37.3176
-36.9279	477.562	37.386
-36.9216	477.833	37.4543
-36.91534	479.567	37.5227
-36.9102	483.462	37.5911
-36.9046	482.5853	37.6594
-36.8987	479.345	37.7278
-36.8934	480.871	37.7961
-36.8874	479.434	37.8645
-36.88092	475.442	37.9329
-36.87619	472.578	38.0012
-36.8702	473.962	38.06958
-36.8648	473.567	38.1379
-36.8592	477.158	38.2063
-36.8533	477.407	38.2747
-36.8479	476.149	38.343
-36.8404	473.888	38.4114
-36.8356	475.832	38.4797
-36.83157	472.739	38.5481
-36.824	467.869	38.6165
-36.8188	463.06	38.6848
-36.8135	458.369	38.7532
-36.8047	-20.3089	38.8215
-36.8014	-41.8615	38.8899
-36.7967	-40.5271	38.9583
-36.7893	-42.0091	39.0266
-36.7846	-38.72345	39.095
-36.7788	-35.6522	39.16333
-36.7732	-39.4214	39.2317
-36.7677	-41.253	39.3
-36.7618	-42.0095	39.3684
-36.7559	-45.3943	39.4368
-36.7495	-44.1323	39.5051
-36.7454	-43.5377	39.5735
-36.7385	-42.2023	39.6418
-36.7329	-43.2475	39.7102
-36.72826	-40.41626	39.7786
-36.72208	-36.673	39.8469
-36.7154	-38.9842	39.9153
-36.7114	-40.0051	39.9836
-36.70808	-42.9767	40.0129

Data Header:			0.254_hd_uprint_typeiv_4545_r0			Time:	40.5374	s	4/13/2019 7:51:11 PM
Data Acquisition:	Timed
Station Name:	ft40.cfg
Test File Name:	monotonic_0.2540_typeiv_hd_4545_uprint.tst
Displacement	Force	Running Time
mm	N	s
-36.708	-40.5025	40.0227
-36.7069	-38.10376	40.0325
-36.7054	-37.8936	40.0422
-36.7055	-39.9484	40.052
-36.7038	-46.6914	40.0618
-36.70306	-43.9664	40.0715
-36.7021	-41.6977	40.0813
-36.7026	-36.5872	40.0911
-36.7011	-37.5437	40.10083
-36.7004	-42.1294	40.1106
-36.6996	-44.6302	40.1204
-36.6981	-42.8334	40.1301
-36.6972	-42.1448	40.1399
-36.6962	-38.975	40.1497
-36.6963	-37.976	40.1594
-36.695	-38.2659	40.1692
-36.6946	-42.6713	40.179
-36.6933	-43.5638	40.1887
-36.6936	-45.14	40.1985
-36.69228	-40.712	40.2083
-36.69128	-39.9451	40.218
-36.69022	-38.9411	40.2278
-36.6897	-40.9927	40.2375
-36.6878	-43.3334	40.2473
-36.68692	-42.2921	40.25708
-36.688	-43.8833	40.2668
-36.6865	-41.8282	40.2766
-36.685	-37.0979	40.2864
-36.6836	-39.4121	40.2961
-36.6844	-40.7097	40.3059
-36.6827	-45.2551	40.3157
-36.6824	-44.0743	40.3254
-36.6811	-38.7843	40.3352
-36.6803	-41.3955	40.345
-36.6784	-35.316	40.3547
-36.6791	-42.19083	40.3645
-36.6773	-42.7986	40.3743
-36.677	-44.491	40.384
-36.6775	-46.6388	40.3938
-36.6757	-38.8981	40.4036
-36.6742	-36.24337	40.41333
-36.6734	-38.7057	40.4231
-36.6726	-42.4136	40.4329
-36.6727	-45.1296	40.4426
-36.672	-41.7947	40.4524
-36.6697	-40.4602	40.4622
-36.66983	-36.7334	40.4719
-36.6688	-38.3161	40.4817
-36.6691	-39.8914	40.4915
-36.6678	-45.5927	40.5012
-36.6668	-45.8842	40.511
-36.6655	-42.7299	40.5208
-36.6646	-36.9069	40.5305