File: data/processed_data_files/tensile/0.254_hd_dimension_typeiv_090_r(3).dat
MTS793|BTW|ENU|1|2|.|/|:|1|0|0|A

Data Header:			0.254_hd_dimension_typeiv_090_r0			Time:	20.0186	s	4/14/2019 12:29:34 AM
Data Acquisition:	Timed
Station Name:	ft40.cfg
Test File Name:	monotonic_0.2540_typeiv_hd_090_dimension.tst
Displacement	Force	Running Time
mm	N	s
-40.0405	-139.122	0.0224609
-40.0381	-136.471	0.0908203
-40.0319	-134.677	0.15918
-40.0266	-132.014	0.227539
-40.0216	-125.121	0.295898
-40.0153	-123.897	0.364258
-40.0094	-123.877	0.432617
-40.00489	-120.01	0.500977
-39.9981	-118.526	0.569336
-39.9923	-112.439	0.637695
-39.9871	-107.667	0.706055
-39.9816	-102.661	0.774414
-39.9755	-99.9261	0.842773
-39.9701	-96.576	0.911133
-39.9635	-89.44133	0.979492
-39.9587	-87.6487	1.04785
-39.9519	-86.0799	1.11621
-39.9471	-84.0663	1.18457
-39.9408	-82.7182	1.25293
-39.93647	-78.6046	1.32129
-39.9306	-72.5322	1.38965
-39.9237	-70.5428	1.45801
-39.9191	-68.5377	1.52637
-39.9127	-60.8661	1.59473
-39.9072	-54.2006	1.66309
-39.9017	-53.7919	1.73145
-39.896	-50.3476	1.7998
-39.8908	-47.8962	1.86816
-39.8837	-46.8027	1.93652
-39.8794	-42.8497	2.00488
-39.873	-38.5785	2.07324
-39.8678	-38.1887	2.1416
-39.8611	-33.294	2.20996
-39.8558	-26.7556	2.27832
-39.8496	-22.1278	2.34668
-39.8455	-18.9053	2.41504
-39.84	-15.5497	2.4834
-39.833	-14.2239	2.55176
-39.8277	-13.1769	2.62012
-39.8213	-7.75045	2.68848
-39.8156	-5.70353	2.75684
-39.8101	-3.1828	2.8252
-39.8053	-1.785073	2.89355
-39.7994	8.84319	2.96191
-39.7946	11.98772	3.03027
-39.7877	14.7874	3.09863
-39.782	19.6396	3.16699
-39.7766	22.0991	3.23535
-39.7701	22.0509	3.30371
-39.7646	27.3045	3.37207
-39.76	29.6126	3.44043
-39.75293	27.8168	3.50879
-39.7486	32.3183	3.57715
-39.7418	41.4051	3.64551
-39.73653	43.8313	3.71387
-39.7308	48.9547	3.78223
-39.7241	54.2396	3.85059
-39.7198	57.58	3.91895
-39.7139	59.9114	3.9873
-39.7075	62.6604	4.05566
-39.7024	62.6129	4.12402
-39.6972	61.39809	4.19238
-39.6913	65.0061	4.26074
-39.6852	74.4837	4.3291
-39.6796	76.3349	4.39746
-39.6742	80.6993	4.46582
-39.668	87.8852	4.53418
-39.6623	90.7772	4.60254
-39.6566	93.937	4.6709
-39.6514	97.5006	4.73926
-39.6443	98.4918	4.80762
-39.6396	96.1322	4.87598
-39.6337	99.3961	4.94434
-39.6286	106.582	5.0127
-39.6233	107.769	5.08105
-39.6177	112.815	5.14941
-39.611	120.595	5.21777
-39.6053	123.303	5.28613
-39.5996	128.631	5.35449
-39.5942	130.838	5.42285
-39.5885	133.802	5.49121
-39.5834	129.938	5.55957
-39.5778	134.479	5.62793
-39.5713	138.347	5.69629
-39.5659	140.819	5.76465
-39.5617	143.672	5.83301
-39.5549	151.299	5.90137
-39.5484	156.107	5.96973
-39.5426	160.402	6.03809
-39.53727	164.062	6.10645
-39.5318	166.327	6.1748
-39.525	164.227	6.24316
-39.5205	167.334	6.31152
-39.5145	171.656	6.37988
-39.50872	172.954	6.44824
-39.5043	176	6.5166
-39.4983	182.852	6.58496
-39.4924	188.13	6.65332
-39.487	193.357	6.72168
-39.4796	195.867	6.79004
-39.475	196.142	6.8584
-39.4694	196.728	6.92676
-39.4633	202.931	6.99512
-39.4576	203.687	7.06348
-39.4527	204.8956	7.13184
-39.44558	209.334	7.2002
-39.4411	215.499	7.26855
-39.4354	218.513	7.33691
-39.4297	224.261	7.40527
-39.4236	227.201	7.47363
-39.4189	227.103	7.54199
-39.4115	230.868	7.61035
-39.4069	234.991	7.67871
-39.4009	234.967	7.74707
-39.3965	237.5506	7.81543
-39.3896	241.334	7.88379
-39.3843	242.236	7.95215
-39.3788	250.579	8.02051
-39.37252	254.853	8.08887
-39.3663	257.568	8.15723
-39.3607	259.214	8.22559
-39.3546	262.87	8.29395
-39.3498	265.1507	8.3623
-39.3439	266.593	8.43066
-39.3383	268.982	8.49902
-39.3308	272.125	8.56738
-39.3265	271.334	8.63574
-39.3207	277.182	8.7041
-39.3143	284.515	8.77246
-39.3103	287.474	8.84082
-39.3054	288.683	8.90918
-39.2976	295.465	8.97754
-39.2921	298.076	9.0459
-39.286	297.397	9.11426
-39.2812	300.422	9.18262
-39.2764	302.91	9.25098
-39.2696	301.182	9.31934
-39.2646	305.629	9.3877
-39.2575	311.215	9.45605
-39.2524	313.575	9.52441
-39.248	316.158	9.59277
-39.241	324.92	9.66113
-39.236	327.18	9.72949
-39.2296	327.812	9.79785
-39.2242	330.499	9.86621
-39.2192	330.799	9.93457
-39.2131	331.8671	10.00293
-39.2061	335.689	10.0713
-39.2019	339.723	10.1396
-39.1956	339.58	10.208
-39.1896	344.191	10.2764
-39.1846	352.615	10.3447
-39.1787	357.219	10.4131
-39.1711	356.45	10.4814
-39.1663	360.403	10.5498
-39.1608	359.77	10.6182
-39.156	361.789	10.6865
-39.1497	362.814	10.7549
-39.1447	365.621	10.8232
-39.1381	365.418	10.8916
-39.1332	369.533	10.96
-39.1269	379.659	11.02832
-39.1221	380.261	11.09668
-39.1166	383.509	11.165
-39.1103	385.953	11.2334
-39.10437	385.913	11.3018
-39.09948	386.447	11.3701
-39.0932	390.779	11.4385
-39.0879	390.346	11.5068
-39.0824	390.153	11.5752
-39.0756	394.698	11.6436
-39.0698	401.871	11.7119
-39.0649	403.2818	11.7803
-39.0591	407.576	11.8486
-39.0539	411.792	11.917
-39.0471	411.583	11.9854
-39.0423	413.018	12.0537
-39.0363	414.197	12.12207
-39.0305	412.22	12.19043
-39.02491	412.005	12.2588
-39.01944	417.031	12.3271
-39.0127	422.034	12.3955
-39.0077	423.533	12.4639
-39.003	427.206	12.5322
-38.9964	431.64	12.6006
-38.9909	432.447	12.6689
-38.9853	433.168	12.7373
-38.9792	431.8642	12.8057
-38.9745	430.738	12.874
-38.9678	431.397	12.9424
-38.9625	434.73	13.0107
-38.9565	438.176	13.0791
-38.9506	440.305	13.1475
-38.945	444.712	13.21582
-38.9393	445.721	13.28418
-38.934	448.816	13.3525
-38.9277	449.818	13.4209
-38.9232	449.044	13.4893
-38.9168	446.157	13.5576
-38.9114	447.2999	13.626
-38.9055	446.982	13.6943
-38.9	447.677	13.7627
-38.8931	448.983	13.8311
-38.8867	453.622	13.8994
-38.8831	455.598	13.9678
-38.8782	461.176	14.0361
-38.8704	460.578	14.1045
-38.864	457.619	14.1729
-38.8596	454.711	14.2412
-38.855	455.561	14.30957
-38.847	455.994	14.37793
-38.8421	453.481	14.4463
-38.8369	457.315	14.5146
-38.8317	458.929	14.583
-38.8249	459.421	14.6514
-38.8187	464.27	14.7197
-38.81356	464.3428	14.7881
-38.809	461.273	14.8564
-38.8022	461.427	14.9248
-38.7975	463.707	14.9932
-38.7915	459.467	15.0615
-38.78598	455.692	15.1299
-38.78	458.417	15.1982
-38.77335	460.424	15.2666
-38.7682	460.841	15.335
-38.7626	464.469	15.40332
-38.7561	466.44	15.47168
-38.7509	462.6218	15.54
-38.746	462.666	15.6084
-38.7405	465.9772	15.6768
-38.7345	458.548	15.7451
-38.7293	457.479	15.8135
-38.7234	458.47	15.8818
-38.7167	455.418	15.9502
-38.7114	458.856	16.0186
-38.7059	461.1546	16.0869
-38.7004	461.513	16.1553
-38.6941	458.879	16.2236
-38.6898	459.7168	16.292
-38.6834	462.854	16.3604
-38.6781	457.1524	16.4287
-38.6718	454.63	16.49707
-38.6665	455.8063	16.56543
-38.6601	450.718	16.6338
-38.6547	451.802	16.7021
-38.6484	455.604	16.7705
-38.6442	454.536	16.8389
-38.63644	453.185	16.9072
-38.63208	457.4585	16.9756
-38.6253	459.2449	17.0439
-38.6194	454.514	17.1123
-38.6149	452.201	17.1807
-38.6093	450.091	17.249
-38.603	449.6	17.3174
-38.597	447.185	17.3857
-38.5924	450.921	17.4541
-38.5875	448.7684	17.5225
-38.5799	448.217	17.59082
-38.5741	452.518	17.65918
-38.5687	454.003	17.7275
-38.5626	449.15	17.7959
-38.5572	450.1377	17.8643
-38.55154	447.551	17.9326
-38.5463	446.846	18.001
-38.541	445.183	18.0693
-38.5348	444.593	18.1377
-38.5281	443.065	18.2061
-38.5238	445.581	18.2744
-38.5169	450.846	18.3428
-38.5123	449.4053	18.4111
-38.5073	448.45	18.4795
-38.5009	448.488	18.5479
-38.495	445.435	18.6162
-38.48959	443.901	18.68457
-38.4837	443.54	18.75293
-38.4789	440.242	18.8213
-38.4722	438.7973	18.8896
-38.4664	442.259	18.958
-38.4616	445.501	19.0264
-38.4559	446.616	19.0947
-38.4495	448.035	19.1631
-38.4432	445.007	19.2314
-38.439	445.633	19.2998
-38.4325	445.689	19.3682
-38.4259	442.514	19.4365
-38.4218	438.95	19.5049
-38.4142	437.586	19.5732
-38.40955	440.496	19.6416
-38.4042	442.714	19.71
-38.3979	444.317	19.77832
-38.3934	447.036	19.84668
-38.3876	444.995	19.915
-38.381	444.398	19.9834
-38.37862	436.355	20.0127

Data Header:			0.254_hd_dimension_typeiv_090_r0			Time:	34.5156	s	4/14/2019 12:29:49 AM
Data Acquisition:	Timed
Station Name:	ft40.cfg
Test File Name:	monotonic_0.2540_typeiv_hd_090_dimension.tst
Displacement	Force	Running Time
mm	N	s
-38.378	440.371	20.0225
-38.3742	436.494	20.0713
-38.3694	441.39	20.1201
-38.3657	445.467	20.1689
-38.3616	443.9538	20.2178
-38.3566	439.148	20.2666
-38.3547	436.768	20.31543
-38.3496	442.3847	20.3643
-38.34544	445.767	20.4131
-38.3408	441.88	20.4619
-38.3379	437.593	20.5107
-38.33255	441.681	20.55957
-38.3296	446.5817	20.6084
-38.3258	443.287	20.6572
-38.3201	437.057	20.7061
-38.3166	435.063	20.7549
-38.3128	440.52	20.8037
-38.309	446.595	20.8525
-38.3046	443.461	20.9014
-38.3014	436.43	20.9502
-38.2974	436.483	20.999
-38.29184	442.455	21.0479
-38.28854	441.8894	21.09668
-38.2847	436.744	21.1455
-38.2813	434.649	21.1943
-38.2756	440.67	21.2432
-38.2714	445.527	21.292
-38.2674	442.908	21.34082
-38.2634	435.757	21.3896
-38.2601	435.602	21.4385
-38.2563	440.142	21.4873
-38.2517	445.382	21.5361
-38.2475	441.148	21.585
-38.2442	435.972	21.6338
-38.2405	438.138	21.6826
-38.2349	441.585	21.7314
-38.2311	441.084	21.7803
-38.2275	436.295	21.8291
-38.2233	435.293	21.87793
-38.2188	440.715	21.9268
-38.2159	444.024	21.9756
-38.2117	439.9006	22.0244
-38.2067	434.549	22.0732
-38.203	433.082	22.12207
-38.1985	440.759	22.1709
-38.196	442.759	22.2197
-38.1911	437.849	22.2686
-38.1861	435.233	22.3174
-38.1825	438.805	22.3662
-38.1786	440.272	22.415
-38.17548	438.997	22.4639
-38.1702	436.407	22.5127
-38.1671	435.253	22.5615
-38.1629	440.248	22.6104
-38.1576	442.683	22.65918
-38.1548	439.635	22.708
-38.1495	434.815	22.7568
-38.14608	437.529	22.8057
-38.142	441.0733	22.8545
-38.1374	439.993	22.90332
-38.1348	437.874	22.9521
-38.1295	435.9678	23.001
-38.1277	440.286	23.0498
-38.1209	440.34	23.0986
-38.1171	436.899	23.1475
-38.1122	434.423	23.1963
-38.1092	436.491	23.2451
-38.1058	439.87	23.2939
-38.1004	439.83	23.3428
-38.0978	439.033	23.3916
-38.0933	435.467	23.44043
-38.0887	436.4585	23.4893
-38.0852	438.3779	23.5381
-38.0802	437.311	23.5869
-38.077	437.4635	23.6357
-38.0722	437.655	23.68457
-38.0689	440.402	23.7334
-38.0654	439.518	23.7822
-38.0605	434.4075	23.8311
-38.0559	434.142	23.8799
-38.0514	439.156	23.9287
-38.0482	440.941	23.9775
-38.0438	438.547	24.0264
-38.0402	436.181	24.0752
-38.0367	437.543	24.124
-38.0321	438.307	24.1729
-38.0272	438.417	24.22168
-38.0233	435.2309	24.2705
-38.0202	434.5816	24.3193
-38.0158	438.222	24.3682
-38.0121	441.677	24.417
-38.0084	438.765	24.46582
-38.0035	431.19	24.5146
-37.9992	433.586	24.5635
-37.9959	438.081	24.6123
-37.9921	440.32	24.6611
-37.9857	435.002	24.71
-37.9829	433.879	24.7588
-37.9792	438.244	24.8076
-37.9743	439.461	24.8564
-37.9718	437.698	24.9053
-37.9671	431.472	24.9541
-37.9624	433.918	25.00293
-37.9596	437.906	25.0518
-37.9549	441.129	25.1006
-37.9509	436.359	25.1494
-37.947	431.056	25.1982
-37.9427	433.498	25.24707
-37.9375	439.621	25.2959
-37.9343	438.061	25.3447
-37.9303	431.519	25.3936
-37.9263	431.35	25.4424
-37.9229	438.7923	25.4912
-37.9186	442.431	25.54
-37.9139	435.182	25.5889
-37.9095	430.181	25.6377
-37.9071	433.558	25.6865
-37.9026	439.596	25.7354
-37.8983	440.457	25.78418
-37.894	434.958	25.833
-37.8891	432.077	25.8818
-37.8859	432.928	25.9307
-37.8815	438.893	25.9795
-37.87801	436.958	26.02832
-37.8736	429.467	26.0771
-37.86948	431.574	26.126
-37.86578	437.94	26.1748
-37.8612	440.464	26.2236
-37.8569	432.0892	26.2725
-37.8533	429.674	26.3213
-37.8494	433.646	26.3701
-37.8442	437.713	26.4189
-37.842	439.123	26.4678
-37.8374	433.026	26.5166
-37.8334	431.879	26.56543
-37.8281	434.469	26.6143
-37.8232	439.011	26.6631
-37.82	434.781	26.7119
-37.81654	432.028	26.7607
-37.812	432.747	26.80957
-37.80764	438.632	26.8584
-37.8041	439.104	26.9072
-37.80077	434.158	26.9561
-37.7963	429.95	27.0049
-37.7912	432.8432	27.0537
-37.7882	437.934	27.1025
-37.78281	436.879	27.1514
-37.7791	431.505	27.2002
-37.7765	431.562	27.249
-37.7723	436.243	27.2979
-37.7672	436.703	27.34668
-37.7635	431.935	27.3955
-37.7597	431.44	27.4443
-37.7556	432.761	27.4932
-37.7514	437.25	27.542
-37.747	439.341	27.59082
-37.7427	433.281	27.6396
-37.73909	431.4313	27.6885
-37.735	433.8764	27.7373
-37.7323	437.177	27.7861
-37.7264	435.979	27.835
-37.7226	432.617	27.8838
-37.7184	434.035	27.9326
-37.7159	436.2829	27.9814
-37.7098	434.14	28.0303
-37.7055	431.003	28.0791
-37.7026	429.953	28.12793
-37.6986	435.0607	28.1768
-37.695	436.078	28.2256
-37.6908	434.121	28.2744
-37.6861	431.104	28.3232
-37.6826	433.176	28.37207
-37.6774	434.808	28.4209
-37.6736	435.015	28.4697
-37.6696	433.822	28.5186
-37.6656	431.097	28.5674
-37.6624	434.047	28.6162
-37.6576	435.705	28.665
-37.65448	432.019	28.7139
-37.6499	429.571	28.7627
-37.6452	431.17	28.8115
-37.6421	433.256	28.8604
-37.6365	433.189	28.90918
-37.6333	431.782	28.958
-37.6295	431.007	29.0068
-37.6249	434.266	29.0557
-37.6213	432.407	29.1045
-37.6176	430.9935	29.15332
-37.6144	429.033	29.2021
-37.6093	431.398	29.251
-37.6049	434.484	29.2998
-37.6012	435.609	29.3486
-37.5962	431.7674	29.3975
-37.5932	428.369	29.4463
-37.5885	432.3154	29.4951
-37.5841	435.679	29.5439
-37.5809	433.258	29.5928
-37.5755	429.003	29.6416
-37.5715	430.6438	29.69043
-37.5678	435.661	29.7393
-37.5643	435.769	29.7881
-37.5599	430.875	29.8369
-37.5564	426.946	29.8857
-37.55217	431.484	29.93457
-37.5483	438.65	29.9834
-37.5446	433.779	30.0322
-37.539	430.579	30.0811
-37.5362	427.636	30.1299
-37.5317	432.352	30.1787
-37.5285	435.689	30.2275
-37.5231	430.874	30.2764
-37.52	427.333	30.3252
-37.5156	430.855	30.374
-37.5117	436.209	30.4229
-37.507	434.567	30.47168
-37.503	426.0658	30.5205
-37.5	425.602	30.5693
-37.4963	430.731	30.6182
-37.49128	435.216	30.667
-37.4871	432.942	30.71582
-37.48341	427.76	30.7646
-37.4793	427.047	30.8135
-37.4744	430.818	30.8623
-37.4706	434.221	30.9111
-37.4666	428.606	30.96
-37.4625	425.305	31.0088
-37.4583	431.507	31.0576
-37.4534	436.24	31.1064
-37.4502	434.136	31.1553
-37.4476	425.787	31.2041
-37.4418	424.924	31.25293
-37.4383	430.643	31.3018
-37.4349	435.025	31.3506
-37.43042	431.449	31.3994
-37.4255	426.474	31.4482
-37.421	428.197	31.49707
-37.4169	432.179	31.5459
-37.4139	431.9454	31.5947
-37.41	426.937	31.6436
-37.4061	426.0524	31.6924
-37.4003	429.572	31.7412
-37.3967	434.787	31.79
-37.3931	431.864	31.8389
-37.3891	426.507	31.8877
-37.3853	425.888	31.9365
-37.3812	430.007	31.9854
-37.3771	433.082	32.03418
-37.3733	427.976	32.083
-37.3688	426.486	32.1318
-37.3635	428.565	32.1807
-37.3602	430.892	32.2295
-37.3564	427.527	32.27832
-37.352	424.135	32.3271
-37.348	423.488	32.376
-37.3445	428.0766	32.4248
-37.341	429.652	32.4736
-37.33675	429.7442	32.5225
-37.3311	423.552	32.5713
-37.3282	422.6709	32.6201
-37.3244	428.212	32.6689
-37.3197	427.837	32.7178
-37.3159	424.621	32.7666
-37.3117	424.717	32.81543
-37.3079	427.485	32.8643
-37.3027	427.356	32.9131
-37.3003	424.89	32.9619
-37.2968	421.387	33.0107
-37.2917	422.653	33.05957
-37.2876	426.72	33.1084
-37.283	424.931	33.1572
-37.2789	424.126	33.2061
-37.27597	421.871	33.2549
-37.2719	420.649	33.3037
-37.2665	422.496	33.3525
-37.2631	420.612	33.4014
-37.259	416.759	33.4502
-37.2523	-5.39872	33.499
-37.2494	-33.8117	33.5479
-37.2473	-36.5829	33.59668
-37.2417	-42.0514	33.6455
-37.2377	-43.8646	33.6943
-37.2343	-40.1607	33.7432
-37.2294	-38.4457	33.792
-37.2274	-38.8369	33.84082
-37.2215	-42.2795	33.8896
-37.219	-41.9569	33.9385
-37.2134	-37.7076	33.9873
-37.2104	-37.7603	34.0361
-37.2071	-42.349	34.085
-37.20216	-42.0595	34.1338
-37.1986	-37.3135	34.1826
-37.1942	-36.0577	34.2314
-37.1892	-36.88995	34.2803
-37.185	-43.0035	34.3291
-37.1808	-43.317	34.37793
-37.1784	-37.9045	34.4268
-37.1738	-37.4111	34.4756
-37.1706	-42.6619	34.5049