File: data/processed_data_files/tensile/0.254_solid_dimension_typei_4545_r(6).dat
MTS793|BTW|ENU|1|2|.|/|:|1|0|0|A

Data Header:			0.254_solid_dimension_typei_4545_r0			Time:	20.0178	s	4/14/2019 4:58:42 AM
Data Acquisition:	Timed
Station Name:	ft40.cfg
Test File Name:	monotonic_0.2540_typei_solid_4545_dimension.tst
Displacement	Force	Running Time
mm	N	s
9.95706	-121.866	0.0227051
9.95812	-121.792	0.0910645
9.96488	-113.053	0.159424
9.96894	-110.1367	0.2277832
9.97566	-109.931	0.296143
9.9815	-108.292	0.364502
9.98677	-111.135	0.432861
9.99363	-114.766	0.5012207
9.99843	-110.874	0.56958
10.00456	-103.296	0.637939
10.0098	-98.1616	0.706299
10.0156	-89.7003	0.7746582
10.021	-80.424	0.843018
10.0265	-76.1552	0.911377
10.033	-72.98587	0.979736
10.0381	-68.50602	1.0481
10.0442	-71.8401	1.11646
10.0493	-75.6459	1.18481
10.0559	-73.7798	1.25317
10.0609	-66.8751	1.32153
10.0662	-65.5693	1.38989
10.0725	-57.18924	1.458252
10.0786	-46.2758	1.52661
10.0838	-43.0207	1.59497
10.0899	-35.3267	1.66333
10.0952	-30.2104	1.73169
10.1008	-33.2392	1.80005
10.1065	-35.6133	1.86841
10.1115	-34.2926	1.93677
10.1178	-29.3934	2.005127
10.1237	-29.8176	2.07349
10.13	-22.7349	2.14185
10.13556	-11.2935	2.21021
10.1409	-6.23803	2.27856
10.1463	2.58587	2.34692
10.1521	9.79873	2.41528
10.1588	7.21507	2.48364
10.1642	6.15232	2.552002
10.169	8.711525	2.62036
10.1739	10.993	2.68872
10.1812	10.2267	2.75708
10.1861	16.0032	2.82544
10.19203	23.1057	2.8938
10.197	31.7351	2.96216
10.2032	40.6471	3.03052
10.2099	49.45039	3.098877
10.2149	49.959	3.16724
10.22157	50.6197	3.2356
10.2265	52.3024	3.30396
10.2321	53.0804	3.37231
10.2381	52.5959	3.44067
10.2426	56.2048	3.50903
10.2488	60.7537	3.57739
10.2543	69.6548	3.645752
10.2602	77.33197	3.71411
10.2659	86.6895	3.78247
10.2707	89.8519	3.85083
10.2767	91.2626	3.91919
10.2835	96.5888	3.98755
10.289	95.2998	4.05591
10.2939	94.8817	4.12427
10.3003	95.509	4.192627
10.3056	99.5989	4.26099
10.3121	107.105	4.32935
10.3164	115.139	4.39771
10.32285	123.188	4.46606
10.3287	128.354	4.53442
10.3346	133.591	4.60278
10.3401	138.18	4.67114
10.3461	137.404	4.739502
10.3515	136.145	4.80786
10.3574	136.75	4.87622
10.3632	139.696	4.94458
10.3674	146.467	5.01294
10.3737	152.266	5.0813
10.3798	157.254	5.14966
10.386	165.374	5.21802
10.3905	174.433	5.286377
10.3966	180.15	5.35474
10.4032	181.175	5.4231
10.40886	182.147	5.49146
10.4144	179.235	5.55981
10.4198	180.94	5.62817
10.4249	183.74	5.69653
10.4314	187.762	5.76489
10.437	193.302	5.833252
10.4427	201.436	5.90161
10.447	213.837	5.96997
10.4549	217.274	6.03833
10.46055	221.559	6.10669
10.4647	224.387	6.17505
10.4705	221.742	6.24341
10.47572	224.158	6.31177
10.4832	224.04	6.380127
10.4886	226.3026	6.44849
10.4928	230.208	6.51685
10.4994	241.013	6.58521
10.5054	253.281	6.65356
10.5104	256.6	6.72192
10.51589	262.358	6.79028
10.5231	267.371	6.85864
10.52769	264.201	6.927002
10.533	264.859	6.99536
10.5395	266.7449	7.06372
10.5443	265.092	7.13208
10.5506	269.505	7.20044
10.55626	278.417	7.2688
10.5618	288.619	7.33716
10.5678	294.371	7.40552
10.5734	302.876	7.473877
10.5788	309.089	7.54224
10.5844	307.143	7.6106
10.5909	308.863	7.67896
10.5964	310.413	7.74731
10.6026	305.272	7.81567
10.6087	307.009	7.88403
10.61356	315.35	7.95239
10.6193	323.505	8.020752
10.625	329.686	8.08911
10.6293	340.896	8.15747
10.6369	345.754	8.22583
10.6419	349.95	8.29419
10.6477	350.433	8.36255
10.654	350.46	8.43091
10.6587	347.964	8.49927
10.6644	345.849	8.567627
10.6705	352.606	8.63599
10.6757	358.913	8.70435
10.6811	363.8465	8.77271
10.6862	376.618	8.84106
10.6934	384.386	8.90942
10.6987	390.606	8.97778
10.70519	395.497	9.04614
10.71	395.518	9.114502
10.7158	389.768	9.18286
10.722	386.9	9.25122
10.7273	392.3136	9.31958
10.7333	393.573	9.38794
10.7393	399.042	9.4563
10.7439	410.811	9.52466
10.75007	419.887	9.59302
10.756	427.707	9.661377
10.7614	435.223	9.72974
10.7672	435.228	9.7981
10.77349	433.8902	9.86646
10.7789	432.78	9.93481
10.784	434.841	10.0032
10.7902	430.82	10.0715
10.7956	434.058	10.1399
10.8013	444.208	10.2083
10.8067	453.8063	10.2766
10.81298	463.807	10.345
10.8179	472.75	10.41333
10.8237	474.997	10.4817
10.8298	475.058	10.55
10.8358	475.751	10.6184
10.8413	473.952	10.6868
10.8472	470.883	10.7551
10.8527	472.541	10.8235
10.8585	478.7373	10.8918
10.8642	487.27	10.9602
10.8695	497.99	11.0286
10.875	506.314	11.0969
10.88035	510.909	11.1653
10.8874	515.771	11.2336
10.8928	518.304	11.302
10.898	516.528	11.3704
10.90404	512.745	11.4387
10.9085	511.254	11.50708
10.9169	513.018	11.5754
10.9215	520.8335	11.6438
10.9269	532.032	11.7122
10.9318	539.418	11.7805
10.9387	546.628	11.8489
10.9429	553.3288	11.9172
10.9488	558.139	11.9856
10.9551	556.613	12.054
10.9608	552.895	12.1223
10.9655	550.695	12.1907
10.9715	549.269	12.259
10.9779	554.651	12.3274
10.9841	563.915	12.3958
10.9901	571.6817	12.4641
10.9962	579.806	12.5325
11.0006	590.067	12.60083
11.0062	594.4707	12.6692
11.0118	594.718	12.7375
11.01825	593.687	12.8059
11.0238	593.186	12.8743
11.02923	587.165	12.9426
11.0353	592.599	13.011
11.0407	596.369	13.0793
11.0475	600.6311	13.1477
11.05182	610.915	13.2161
11.05789	623.814	13.2844
11.0636	629.247	13.3528
11.0688	632.027	13.4211
11.0743	634.767	13.4895
11.0809	630.7793	13.5579
11.0859	626.2182	13.6262
11.0922	628.021	13.69458
11.0972	630.628	13.7629
11.1027	632.0144	13.8313
11.109	641.908	13.8997
11.1147	656.409	13.968
11.1204	660.841	14.0364
11.1254	667.67	14.1047
11.1301	672.741	14.1731
11.13774	669.467	14.2415
11.14257	666.763	14.3098
11.1493	665.075	14.3782
11.1542	665.078	14.4465
11.1594	664.623	14.5149
11.1654	672.821	14.5833
11.1711	685.881	14.6516
11.1772	692.313	14.72
11.1827	701.942	14.78833
11.1883	709.5686	14.8567
11.1949	707.789	14.925
11.2002	706.512	14.9934
11.2049	704.201	15.0618
11.2113	700.3	15.1301
11.2175	696.593	15.1985
11.2225	705.7085	15.2668
11.2282	716.878	15.3352
11.234	722.199	15.4036
11.24	732.4173	15.4719
11.2454	741.938	15.5403
11.2508	743.679	15.6086
11.2566	744.292	15.677
11.2619	741.947	15.7454
11.2681	737.224	15.8137
11.275	733.4295	15.88208
11.2804	738.776	15.9504
11.2851	745.902	16.0188
11.2908	751.7536	16.0872
11.2965	762.926	16.1555
11.3024	770.8219	16.2239
11.3082	777.502	16.2922
11.3139	778.621	16.3606
11.3187	780.517	16.429
11.3251	775.41	16.4973
11.3311	768.982	16.5657
11.3366	772.623	16.634
11.342	774.154	16.7024
11.34714	780.3	16.7708
11.3517	790.282	16.8391
11.3599	799.75	16.9075
11.3643	807.554	16.97583
11.3706	811.55	17.0442
11.3763	812.828	17.1125
11.38193	809.208	17.1809
11.3881	804.25	17.2493
11.3941	806.19	17.3176
11.3992	806.319	17.386
11.4046	810.424	17.4543
11.4108	819.519	17.5227
11.4159	826.963	17.5911
11.4232	836.617	17.6594
11.42668	844.65	17.7278
11.4335	845.567	17.7961
11.4379	841.972	17.8645
11.4451	842.358	17.9329
11.4505	839.813	18.0012
11.4565	837.905	18.06958
11.46214	839.096	18.1379
11.46721	844.817	18.2063
11.4729	852.75	18.2747
11.4791	864.409	18.343
11.4846	871.518	18.4114
11.4901	874.403	18.4797
11.4955	874.624	18.5481
11.5025	876.632	18.6165
11.508	872.186	18.6848
11.513	869.937	18.7532
11.5185	869.9	18.8215
11.5249	871.549	18.8899
11.5305	878.674	18.9583
11.5365	888.606	19.0266
11.5414	894.1839	19.095
11.5468	900.932	19.16333
11.5527	903.821	19.2317
11.5585	907.421	19.3
11.5643	903.467	19.3684
11.5701	901.611	19.4368
11.5767	900.519	19.5051
11.5813	898.947	19.5735
11.5876	904.768	19.6418
11.5926	912.647	19.7102
11.5982	919.535	19.7786
11.6039	924.43	19.8469
11.6103	932.606	19.9153
11.6154	936.93	19.9836
11.61714	914.38	20.0129

Data Header:			0.254_solid_dimension_typei_4545_r0			Time:	40.0176	s	4/14/2019 4:59:02 AM
Data Acquisition:	Timed
Station Name:	ft40.cfg
Test File Name:	monotonic_0.2540_typei_solid_4545_dimension.tst
Displacement	Force	Running Time
mm	N	s
11.61869	924.078	20.0227
11.62364	932.858	20.0911
11.63	940.467	20.1594
11.6355	946.424	20.2278
11.64117	946.597	20.2961
11.64734	943.025	20.3645
11.6536	941.892	20.4329
11.6592	939.273	20.5012
11.6644	938.931	20.56958
11.66933	940.029	20.6379
11.676	944.951	20.7063
11.6815	955.937	20.7747
11.6871	962.0271	20.843
11.6929	970.32	20.9114
11.6983	970.418	20.9797
11.7046	971.4953	21.0481
11.7093	972.187	21.1165
11.7163	968.946	21.1848
11.7223	965.789	21.2532
11.7274	965.167	21.3215
11.7325	965.2561	21.3899
11.738	974.75	21.4583
11.74439	982.318	21.5266
11.74956	988.466	21.595
11.7561	994.39	21.66333
11.7609	997.284	21.7317
11.7661	998.498	21.8
11.7719	992.297	21.8684
11.7775	990.002	21.9368
11.7834	989.0365	22.0051
11.7893	988.034	22.0735
11.7953	995.713	22.1418
11.8009	1003.51	22.2102
11.8068	1007.31	22.2786
11.8127	1012.83	22.3469
11.8181	1020.7	22.4153
11.8234	1021.25	22.4836
11.82862	1018.205	22.552
11.8351	1014.06	22.6204
11.8406	1011.94	22.6887
11.8466	1010.1	22.75708
11.8521	1013.66	22.8254
11.8575	1018.69	22.8938
11.8635	1022.01	22.9622
11.8692	1029.43	23.0305
11.8749	1039.61	23.0989
11.8803	1039.54	23.1672
11.8864	1039.72	23.2356
11.8927	1037.76	23.304
11.8979	1033.85	23.3723
11.9031	1032.74	23.4407
11.90914	1032.93	23.509
11.9156	1035.08	23.5774
11.92134	1036.32	23.6458
11.9259	1045.1	23.7141
11.9318	1055.92	23.7825
11.93727	1056.72	23.85083
11.9444	1058.95	23.9192
11.9488	1058.7	23.9875
11.9553	1054.15	24.0559
11.9602	1051.18	24.1243
11.966	1049.14	24.1926
11.971	1047.51	24.261
11.9772	1048.63	24.3293
11.9824	1058.952	24.3977
11.9891	1067.47	24.4661
11.9947	1070.608	24.5344
12.0001	1074.01	24.6028
12.0059	1075.78	24.6711
12.011	1072.02	24.7395
12.0188	1067.46	24.8079
12.0227	1065.6	24.8762
12.0292	1063.06	24.94458
12.0346	1060.62	25.0129
12.0404	1068.93	25.0813
12.04593	1077.26	25.1497
12.05126	1080.63	25.218
12.0574	1085.93	25.2864
12.062	1090.8	25.3547
12.0681	1086.65	25.4231
12.0753	1085.56	25.4915
12.0797	1080.49	25.5598
12.0857	1075.52	25.6282
12.09148	1072.18	25.6965
12.0974	1078.96	25.7649
12.1028	1084	25.8333
12.1088	1087.3	25.9016
12.1151	1094.47	25.97
12.1198	1098.44	26.03833
12.1258	1100.313	26.1067
12.1318	1097.86	26.175
12.1369	1094.83	26.2434
12.14348	1086.88	26.3118
12.1494	1084.089	26.3801
12.15395	1087.88	26.4485
12.1589	1089.91	26.5168
12.1651	1093.85	26.5852
12.1708	1099.83	26.6536
12.1767	1105.13	26.7219
12.1827	1108.12	26.7903
12.1875	1109.55	26.8586
12.19435	1104.488	26.927
12.1995	1097.65	26.9954
12.2054	1093.73	27.0637
12.2112	1094.71	27.13208
12.2166	1093.22	27.2004
12.2222	1097.75	27.2688
12.2281	1103.533	27.3372
12.23309	1110.65	27.4055
12.2391	1114.37	27.4739
12.2452	1115.35	27.5422
12.2504	1110.27	27.6106
12.2568	1105.13	27.679
12.2634	1103.21	27.7473
12.2685	1098.22	27.8157
12.2736	1096.13	27.884
12.2792	1100.35	27.9524
12.2846	1103.14	28.0208
12.2902	1109.09	28.0891
12.2969	1115.77	28.1575
12.3014	1119.15	28.22583
12.3077	1116.18	28.2942
12.3131	1112.04	28.3625
12.32	1112.05	28.4309
12.3249	1105.63	28.4993
12.3306	1101.88	28.5676
12.3368	1102.77	28.636
12.3427	1101.92	28.7043
12.3473	1108.74	28.7727
12.3529	1117.75	28.8411
12.3587	1118.6	28.9094
12.3656	1118.39	28.9778
12.3708	1118.14	29.0461
12.3749	1117.14	29.1145
12.3827	1109.09	29.1829
12.3878	1106.35	29.2512
12.3938	1103.97	29.31958
12.3982	1102.33	29.3879
12.4055	1108.3	29.4563
12.4113	1115.88	29.5247
12.41564	1117.36	29.593
12.4225	1118.59	29.6614
12.4277	1122.9	29.7297
12.4334	1122.18	29.7981
12.4391	1114.25	29.8665
12.445	1110.46	29.9348
12.4509	1109.07	30.0032
12.4559	1102.96	30.0715
12.46169	1107.31	30.1399
12.4663	1112.48	30.2083
12.4727	1114.96	30.2766
12.4792	1116.37	30.345
12.4836	1125.41	30.41333
12.4905	1123.59	30.4817
12.4948	1118.02	30.55
12.5009	1115.36	30.6184
12.5068	1110.95	30.6868
12.51353	1105.06	30.7551
12.5185	1105.89	30.8235
12.525	1109.57	30.8918
12.5294	1109.53	30.9602
12.5353	1114.38	31.0286
12.541	1122.93	31.0969
12.5468	1123.23	31.1653
12.5532	1119.43	31.2336
12.5591	1118.14	31.302
12.5636	1111.7	31.3704
12.56991	1108.21	31.4387
12.5757	1106.02	31.50708
12.5809	1105.99	31.5754
12.5864	1105.34	31.6438
12.5921	1110.83	31.7122
12.5989	1120.41	31.7805
12.6044	1120.93	31.8489
12.61	1121.43	31.9172
12.6157	1120.33	31.9856
12.6219	1115.75	32.054
12.627	1111.098	32.1223
12.6327	1107.13	32.1907
12.6377	1104.2	32.259
12.6428	1102.62	32.3274
12.6503	1108.16	32.3958
12.656	1116.234	32.4641
12.6613	1117.49	32.5325
12.6665	1120.66	32.60083
12.67304	1120.91	32.6692
12.6775	1118.7	32.7375
12.6838	1113.4	32.8059
12.6885	1106.89	32.8743
12.6954	1102.68	32.9426
12.70079	1099.75	33.011
12.7067	1104.46	33.0793
12.7117	1109.68	33.1477
12.7183	1114.22	33.2161
12.7232	1118.59	33.2844
12.7293	1119.647	33.3528
12.7354	1119.78	33.4211
12.7414	1116.41	33.4895
12.7462	1110.82	33.5579
12.7515	1100.82	33.6262
12.7585	1098.43	33.69458
12.7632	1101.47	33.7629
12.7697	1104.767	33.8313
12.7746	1109.06	33.8997
12.7798	1114.84	33.968
12.7867	1117.48	34.0364
12.7924	1118.58	34.1047
12.7982	1117.17	34.1731
12.80415	1110.69	34.2415
12.8089	1104.167	34.3098
12.8154	1100.83	34.3782
12.8198	1100.53	34.4465
12.8264	1099.78	34.5149
12.8312	1104.82	34.5833
12.8381	1109.77	34.6516
12.8443	1112.44	34.72
12.8494	1119.29	34.78833
12.8545	1119.85	34.8567
12.8609	1113.1	34.925
12.8673	1104.85	34.9934
12.8715	1102.062	35.0618
12.8779	1100.32	35.1301
12.883	1096.66	35.1985
12.8891	1099.81	35.2668
12.8942	1105.89	35.3352
12.9005	1109.37	35.4036
12.9066	1115.45	35.4719
12.9111	1117.66	35.5403
12.9179	1112.44	35.6086
12.9232	1108.49	35.677
12.9288	1104.97	35.7454
12.9352	1099.61	35.8137
12.9406	1094.69	35.88208
12.9463	1097.85	35.9504
12.951	1100.451	36.0188
12.9573	1103.04	36.0872
12.9624	1111.327	36.1555
12.9688	1117.35	36.2239
12.974	1113.63	36.2922
12.9795	1110.23	36.3606
12.9856	1110.1	36.429
12.9919	1103.083	36.4973
12.9967	1096.08	36.5657
13.0031	1096.44	36.634
13.0078	1097.7	36.7024
13.0134	1100.26	36.7708
13.0195	1107.6	36.8391
13.0257	1111.74	36.9075
13.03091	1110.44	36.97583
13.0367	1110.09	37.0442
13.0425	1112.06	37.1125
13.0479	1104.48	37.1809
13.0536	1098.27	37.2493
13.0594	1095.68	37.3176
13.065	1096.03	37.386
13.07063	1096.63	37.4543
13.0761	1103.87	37.5227
13.08303	1108.37	37.5911
13.0889	1108.66	37.6594
13.0938	1109.24	37.7278
13.0996	1113.46	37.7961
13.1052	1107.08	37.8645
13.1105	1100.38	37.9329
13.1159	1096.13	38.0012
13.1231	1092.93	38.06958
13.1274	1094.05	38.1379
13.1337	1099.57	38.2063
13.1392	1101.28	38.2747
13.1443	1103	38.343
13.1503	1108.48	38.4114
13.1563	1112.15	38.4797
13.16186	1108.05	38.5481
13.1681	1101.23	38.6165
13.1734	1097.98	38.6848
13.17927	1094.1	38.7532
13.1847	1090.81	38.8215
13.1913	1094.01	38.8899
13.1968	1096.3	38.9583
13.2027	1100.01	39.0266
13.2082	1106.601	39.095
13.2141	1110.286	39.16333
13.2195	1109.85	39.2317
13.22511	1103.58	39.3
13.2314	1100.38	39.3684
13.2354	1095.76	39.4368
13.2421	1091.671	39.5051
13.2482	1091.3	39.5735
13.2536	1092.764	39.6418
13.25863	1095.41	39.7102
13.2647	1103.152	39.7786
13.2711	1106.91	39.8469
13.2764	1108.22	39.9153
13.2816	1105.8	39.9836
13.2826	1094.59	40.0129

Data Header:			0.254_solid_dimension_typei_4545_r0			Time:	60.0181	s	4/14/2019 4:59:22 AM
Data Acquisition:	Timed
Station Name:	ft40.cfg
Test File Name:	monotonic_0.2540_typei_solid_4545_dimension.tst
Displacement	Force	Running Time
mm	N	s
13.2851	1098.78	40.0227
13.29082	1103	40.0911
13.2965	1102.72	40.1594
13.3024	1107.75	40.2278
13.3084	1108.137	40.2961
13.3135	1102	40.3645
13.3194	1096.35	40.4329
13.3255	1093.21	40.5012
13.3298	1090.38	40.56958
13.3362	1089.46	40.6379
13.342	1094.7	40.7063
13.3475	1097.379	40.7747
13.35408	1099.74	40.843
13.35909	1107.1	40.9114
13.365	1109.32	40.9797
13.3703	1103.63	41.0481
13.3766	1100.55	41.1165
13.3822	1095.23	41.1848
13.3877	1091.73	41.2532
13.3933	1087.54	41.3215
13.3991	1092.36	41.3899
13.4041	1093.67	41.4583
13.4105	1096.49	41.5266
13.416	1104.72	41.595
13.4213	1106.751	41.66333
13.4282	1106.09	41.7317
13.4327	1103.85	41.8
13.4396	1099.24	41.8684
13.4442	1094.64	41.9368
13.4506	1090.97	42.0051
13.4562	1090	42.0735
13.4614	1089.95	42.1418
13.4673	1093.66	42.2102
13.4725	1101.45	42.2786
13.478	1106.12	42.3469
13.4842	1106.78	42.4153
13.49	1104.45	42.4836
13.4965	1100.16	42.552
13.50096	1095.56	42.6204
13.5066	1092.01	42.6887
13.5136	1088.07	42.75708
13.5193	1086.69	42.8254
13.5237	1090.56	42.8938
13.53	1096.98	42.9622
13.5357	1100.91	43.0305
13.5414	1105.73	43.0989
13.54602	1105.33	43.1672
13.5518	1101.806	43.2356
13.558	1099.68	43.304
13.565	1095.15	43.3723
13.5701	1086.16	43.4407
13.5761	1084.82	43.509
13.5811	1089.43	43.5774
13.5865	1092.42	43.6458
13.5924	1098.46	43.7141
13.5984	1103.04	43.7825
13.6037	1104.57	43.85083
13.6096	1102.23	43.9192
13.61532	1101.75	43.9875
13.6208	1096.76	44.0559
13.6271	1089.32	44.1243
13.6332	1085.55	44.1926
13.63839	1087.65	44.261
13.6438	1089.18	44.3293
13.6493	1091.85	44.3977
13.6553	1099.86	44.4661
13.6605	1101.78	44.5344
13.6662	1103.93	44.6028
13.6727	1104.31	44.6711
13.6784	1100.98	44.7395
13.684	1090.03	44.8079
13.6898	1086.68	44.8762
13.6944	1086.42	44.94458
13.7006	1085.36	45.0129
13.7072	1089.53	45.0813
13.7116	1095.21	45.1497
13.7179	1097.38	45.218
13.723	1100.77	45.2864
13.7288	1105.32	45.3547
13.7355	1100.72	45.4231
13.7417	1093.2	45.4915
13.7463	1088.26	45.5598
13.7524	1088.94	45.6282
13.7586	1082.59	45.6965
13.76345	1086.01	45.7649
13.7694	1091.24	45.8333
13.775	1093.146	45.9016
13.78	1098.842	45.97
13.7863	1103.25	46.03833
13.7924	1102.12	46.1067
13.7981	1095.84	46.175
13.80355	1093.895	46.2434
13.8084	1090.49	46.3118
13.8147	1083.69	46.3801
13.8204	1083.3	46.4485
13.8265	1087.77	46.5168
13.8313	1092.27	46.5852
13.83659	1096.39	46.6536
13.8431	1101.95	46.7219
13.8492	1102.9	46.7903
13.8551	1097.204	46.8586
13.8598	1096.97	46.927
[...]
14.6234	1088.23	56.0872
14.6301	1090.42	56.1555
14.6364	1093.83	56.2239
14.6407	1096.97	56.2922
14.6465	1092.88	56.3606
14.6529	1088.59	56.429
14.6576	1084.77	56.4973
14.6634	1080.16	56.5657
14.6697	1078.74	56.634
14.6756	1081.47	56.7024
14.6796	1086.44	56.7708
14.6865	1085.543	56.8391
14.6915	1092.547	56.9075
14.6967	1097.75	56.97583
14.7032	1095.2	57.0442
14.7097	1091.191	57.1125
14.7148	1088.05	57.1809
14.7211	1082.84	57.2493
14.7264	1078.57	57.3176
14.7321	1080.52	57.386
14.7368	1082.74	57.4543
14.74307	1082.63	57.5227
14.7499	1088.71	57.5911
14.7543	1097.16	57.6594
14.7607	1094.41	57.7278
14.7662	1094.6	57.7961
14.77248	1092.422	57.8645
14.7776	1085.049	57.9329
14.7835	1079.06	58.0012
14.7873	1080.37	58.06958
14.795	1078.71	58.1379
14.801	1079.08	58.2063
14.8062	1087.28	58.2747
14.8118	1094.59	58.343
14.8173	1094.39	58.4114
14.8225	1094.985	58.4797
14.8303	1094.24	58.5481
14.8351	1086.41	58.6165
14.84	1083.83	58.6848
14.8461	1081.74	58.7532
14.8512	1078.09	58.8215
14.8571	1076.373	58.8899
14.8619	1085.2	58.9583
14.8686	1089.81	59.0266
14.8733	1090.57	59.095
14.8792	1093.23	59.16333
14.8852	1094.64	59.2317
14.8912	1090.21	59.3
14.8972	1086.53	59.3684
14.9031	1083.54	59.4368
14.9092	1079.2	59.5051
14.914	1074.71	59.5735
14.9194	1081.51	59.6418
14.925	1086.44	59.7102
14.9309	1088.01	59.7786
14.9369	1092.31	59.8469
14.9425	1095.14	59.9153
14.94853	1093.95	59.9836
14.9516	1078.92	60.0129

Data Header:			0.254_solid_dimension_typei_4545_r0			Time:	77.0249	s	4/14/2019 4:59:39 AM
Data Acquisition:	Timed
Station Name:	ft40.cfg
Test File Name:	monotonic_0.2540_typei_solid_4545_dimension.tst
Displacement	Force	Running Time
mm	N	s
14.9521	1081.97	60.0227
14.9567	1082.12	60.0813
14.9619	1076.802	60.1399
14.9664	1078.44	60.1985
14.9715	1075.34	60.25708
14.9757	1077.63	60.3157
14.9802	1079.37	60.3743
14.9864	1082.37	60.4329
14.9906	1089.506	60.4915
14.9962	1090.5	60.55
14.9992	1093.82	60.6086
15.0052	1095.472	60.6672
15.011	1096.93	60.72583
15.0144	1093.4	60.7844
15.0199	1092.51	60.843
15.0247	1089.4	60.9016
15.029	1083.92	60.9602
15.0342	1081.886	61.0188
15.0404	1079.31	61.0774
15.0445	1077.9	61.136
15.0493	1076.09	61.19458
15.0538	1080.54	61.2532
15.059	1080.33	61.3118
15.0643	1084.09	61.3704
15.0694	1086.9	61.429
15.0734	1089.95	61.4875
15.0775	1093.182	61.5461
15.0838	1093.47	61.6047
15.08881	1095.32	61.66333
15.09244	1090.37	61.7219
15.0984	1092.86	61.7805
15.1037	1085.2	61.8391
15.1076	1084.903	61.8977
15.1123	1080.23	61.9563
15.1174	1077.65	62.0149
15.1226	1074.07	62.0735
15.1265	1076.91	62.13208
15.132	1079.12	62.1907
15.1375	1080.8	62.2493
15.1422	1083.86	62.3079
15.1471	1087.85	62.3665
15.1521	1091.22	62.425
15.1563	1093.6	62.4836
15.1621	1096.14	62.5422
15.1661	1095.011	62.60083
15.1719	1093.28	62.6594
15.1758	1091.66	62.718
15.1815	1085.76	62.7766
15.1861	1085.63	62.8352
15.1904	1080.14	62.8938
15.1961	1079.59	62.9524
15.2017	1074.41	63.011
15.206	1078.36	63.06958
15.2109	1077.89	63.1282
15.2154	1079.67	63.1868
15.22015	1081.45	63.2454
15.2252	1085.778	63.304
15.2291	1088.856	63.3625
15.2339	1092.03	63.4211
15.2392	1094.73	63.4797
15.244	1090.72	63.53833
15.2483	1092.17	63.5969
15.2544	1087.562	63.6555
15.2589	1086.05	63.7141
15.2633	1082.42	63.7727
15.2682	1080.13	63.8313
15.274	1073.88	63.8899
15.2787	1074.1	63.9485
15.28362	1075.978	64.00708
15.2887	1076.172	64.0657
15.2922	1079.59	64.1243
15.29805	1084.62	64.1829
15.3031	1087.09	64.2415
15.3077	1089.01	64.3
15.313	1094.55	64.3586
15.3173	1093.74	64.4172
15.3222	1092.056	64.47583
15.32854	1094.78	64.5344
15.3319	1088.5	64.593
15.3376	1087.219	64.6516
15.3423	1082.35	64.7102
15.3459	1081.52	64.7688
15.3514	1073.65	64.8274
15.3566	1077.94	64.886
15.3612	1074.82	64.94458
15.366	1076.55	65.0032
15.3714	1077.35	65.0618
15.3752	1082.95	65.1204
15.3813	1085.47	65.179
15.3857	1087.09	65.2375
15.3911	1092.55	65.2961
15.3948	1089.98	65.3547
15.40088	1092.04	65.41333
15.4056	1088.68	65.4719
15.40993	1089.55	65.5305
15.4152	1083.05	65.5891
15.4197	1080.97	65.6477
15.4263	1077.14	65.7063
15.4307	1073.94	65.7649
15.4359	1075.92	65.8235
15.4401	1075.21	65.88208
15.4447	1075.73	65.9407
15.4494	1080.41	65.9993
15.4543	1085.131	66.0579
15.4596	1084.957	66.1165
15.4638	1090.11	66.175
15.4684	1092.86	66.2336
15.4737	1092.76	66.2922
15.4793	1093.67	66.35083
15.4831	1090.19	66.4094
15.4883	1090.12	66.468
15.4929	1085.04	66.5266
15.49827	1083.63	66.5852
15.5024	1078.4	66.6438
15.5082	1075.69	66.7024
15.5125	1073.17	66.761
15.5171	1074.79	66.81958
15.5239	1073.41	66.8782
15.5275	1078.51	66.9368
15.5335	1081.33	66.9954
15.5377	1083.285	67.054
15.5423	1089.86	67.1125
15.5483	1087.54	67.1711
15.55257	1090.953	67.2297
15.5573	1089.03	67.28833
15.5615	1090.25	67.3469
15.5678	1085.22	67.4055
15.57251	1084.36	67.4641
15.57588	1080.86	67.5227
15.5817	1076.8	67.5813
15.5867	1075.58	67.6399
15.5918	1074.49	67.6985
15.5956	1076.028	67.75708
15.6016	1074.29	67.8157
15.6056	1080.03	67.8743
15.6101	1082.43	67.9329
15.6157	1082.06	67.9915
15.6205	1088.98	68.05
15.626	1089.29	68.1086
15.6298	1090.78	68.1672
15.6347	1091.48	68.22583
15.6399	1091.57	68.2844
15.6444	1085.62	68.343
15.6491	1084.87	68.4016
15.6543	1080.35	68.4602
15.66	1076.39	68.5188
15.6644	1071.97	68.5774
15.66994	1072.45	68.636
15.6745	1070.79	68.69458
15.679	1072.73	68.7532
15.6831	1076.45	68.8118
15.6887	1078.42	68.8704
15.69474	1084.09	68.929
15.6981	1083.36	68.9875
15.7033	1089.41	69.0461
15.7087	1086.85	69.1047
15.7129	1090.44	69.16333
15.7169	1087.19	69.2219
15.7229	1086.11	69.2805
15.7279	1083.92	69.3391
15.733	1079.67	69.3977
15.7372	1076.79	69.4563
15.7424	1074.97	69.5149
15.74755	1073.84	69.5735
15.7522	1071.108	69.63208
15.7569	1075.81	69.6907
15.76169	1079.04	69.7493
15.7668	1080.22	69.8079
15.77228	1083.64	69.8665
15.7774	1086.106	69.925
15.7813	1089.76	69.9836
15.7876	1088.11	70.0422
15.7922	1092.16	70.10083
15.7957	1086.214	70.1594
15.8	1087.33	70.218
15.8069	1082.2	70.2766
15.8119	1080.16	70.3352
15.8155	1073.84	70.3938
15.8212	1072.37	70.4524
15.82574	1071.4	70.511
15.8297	1068.82	70.56958
15.8356	1074.2	70.6282
15.84063	1075.11	70.6868
15.845	1078.33	70.7454
15.8506	1078.78	70.804
15.8546	1088.04	70.8625
15.8594	1084.68	70.9211
15.8644	1089.7	70.9797
15.8694	1089.95	71.03833
15.8746	1086.85	71.0969
15.8781	1085.55	71.1555
15.8838	1082.79	71.2141
15.88954	1079.85	71.2727
15.8939	1074.88	71.3313
15.8983	1073.98	71.3899
15.90315	1071.5	71.4485
15.9085	1071.51	71.50708
15.9137	1073.86	71.5657
15.9179	1073.9	71.6243
15.9231	1077.5	71.6829
15.9284	1080.07	71.7415
15.9332	1086.31	71.8
15.9386	1084.843	71.8586
15.9435	1090.72	71.9172
15.9476	1087.63	71.97583
15.9524	1087	72.0344
15.958	1083.129	72.093
15.963	1080.54	72.1516
15.9672	1077.15	72.2102
15.9718	1072.19	72.2688
15.9764	1071.36	72.3274
15.98173	1067.16	72.386
15.9874	1070.28	72.44458
15.9919	1068.82	72.5032
15.99631	1074.71	72.5618
16.0004	1073.493	72.6204
16.0065	1080.24	72.679
16.0113	1084.67	72.7375
16.0159	1084.61	72.7961
16.0199	1087.95	72.8547
16.0261	1087.483	72.91333
16.0306	1086.78	72.9719
16.0358	1084.03	73.0305
16.041	1083	73.0891
16.0456	1077.001	73.1477
16.0505	1074.06	73.2063
16.0558	1072.68	73.2649
16.05979	1070.47	73.3235
16.06522	1071.27	73.38208
16.0697	1069.8	73.4407
16.0753	1076.19	73.4993
16.08	1073.89	73.5579
16.0846	1082.11	73.6165
16.0883	1081.45	73.675
16.0947	1085.47	73.7336
16.0991	1086.12	73.7922
16.1041	1086.48	73.85083
16.1098	1084.45	73.9094
16.11375	1081.82	73.968
16.1186	1080.52	74.0266
16.1228	1072.01	74.0852
16.1283	1071.42	74.1438
16.1338	1068.22	74.2024
16.1375	1068.369	74.261
16.1427	1066.24	74.31958
16.1481	1070.04	74.3782
16.15156	1069.61	74.4368
16.158	1073.61	74.4954
16.1628	1077.881	74.554
16.167	1080.89	74.6125
16.1718	1083.29	74.6711
16.1776	1086.14	74.7297
16.1814	1086.33	74.78833
16.1863	1083.65	74.8469
16.1924	1081.42	74.9055
16.1973	1079.465	74.9641
16.2011	1072.12	75.0227
16.2068	1070.8	75.0813
16.2115	1064.89	75.1399
16.216	1061.82	75.1985
16.2208	1055.38	75.25708
16.2312	-46.4072	75.3157
16.2337	-47.5474	75.3743
16.2378	-39.49931	75.4329
16.2409	-36.8809	75.4915
16.2465	-32.0381	75.55
16.252	-31.411	75.6086
16.2564	-28.7456	75.6672
16.2609	-29.7168	75.72583
16.2655	-34.0768	75.7844
16.2708	-34.7056	75.843
16.2762	-42.8009	75.9016
16.2795	-43.5222	75.9602
16.2838	-48.6286	76.0188
16.2904	-47.2164	76.0774
16.2948	-52.384	76.136
16.3002	-49.7473	76.19458
16.3055	-48.2183	76.2532
16.3104	-47.21389	76.3118
16.3156	-41.8819	76.3704
16.319	-36.7966	76.429
16.324	-35.1893	76.4875
16.3279	-31.7038	76.5461
16.3335	-30.756	76.6047
16.3393	-31.5797	76.66333
16.3439	-32.9811	76.7219
16.3479	-34.1022	76.7805
16.3533	-40.065	76.8391
16.3578	-42.73851	76.8977
16.3643	-46.8758	76.9563
16.36867	-46.3603	77.0149