File: data/processed_data_files/tensile/0.254_solid_dimension_typei_090_r(6).dat
MTS793|BTW|ENU|1|2|.|/|:|1|0|0|A

Data Header:			0.254_solid_dimension_typei_090_r0			Time:	20.0178	s	4/15/2019 2:31:25 PM
Data Acquisition:	Timed
Station Name:	ft40.cfg
Test File Name:	monotonic_0.2540_typei_solid_090_dimension.tst
Displacement	Force	Running Time
mm	N	s
9.97263	-161.825	0.0222168
9.974556	-160.387	0.0905762
9.97918	-151.677	0.158936
9.98562	-149.853	0.227295
9.990407	-144.526	0.2956543
9.995245	-142.736	0.364014
10.0015	-141.568	0.432373
10.0072	-145.582	0.500732
10.0139	-142.831	0.5690918
10.0194	-133.896	0.637451
10.02504	-128.804	0.705811
10.03014	-123.79	0.77417
10.0346	-115.559	0.8425293
10.0425	-110.011	0.910889
10.048	-106.116	0.979248
10.0523	-103.179	1.04761
10.0592	-100.664	1.11597
10.0639	-103.007	1.18433
10.0711	-103.196	1.25269
10.0764	-95.6829	1.32104
10.0826	-90.6929	1.3894
10.08758	-87.039	1.45776
10.0921	-80.106	1.526123
10.0989	-70.8854	1.59448
10.1047	-64.7261	1.66284
10.1108	-61.85648	1.7312
10.116	-59.3514	1.79956
10.1215	-58.0711	1.86792
10.1274	-60.5673	1.93628
10.1333	-54.6472	2.00464
10.138	-50.3998	2.072998
10.145	-46.2105	2.14136
10.1498	-36.8275	2.20972
10.1566	-31.1834	2.27808
10.1613	-25.6276	2.34644
10.1673	-19.1042	2.41479
10.1728	-16.1202	2.48315
10.1788	-17.4442	2.55151
10.1841	-16.019	2.619873
10.1898	-12.5247	2.68823
10.1958	-8.40138	2.75659
10.2001	-6.63149	2.82495
10.2076	1.43047	2.89331
10.2122	8.42331	2.96167
10.2176	12.6685	3.03003
10.2233	23.82082	3.09839
10.2301	28.8826	3.166748
10.2355	26.8933	3.23511
10.2417	27.27309	3.30347
10.2467	31.3461	3.37183
10.2523	34.0806	3.44019
10.259	34.2488	3.50854
10.2635	40.1973	3.5769
10.2695	49.4949	3.64526
10.2746	54.5897	3.713623
10.2817	63.1861	3.78198
10.2871	69.6245	3.85034
10.2929	71.829	3.9187
10.2977	70.5731	3.98706
10.30373	75.2835	4.05542
10.3106	77.6871	4.12378
10.3151	76.3114	4.19214
10.3204	81.7175	4.260498
10.3264	89.1555	4.32886
10.332	94.61689	4.39722
10.3381	101.051	4.46558
10.3444	110.564	4.53394
10.3497	114.149	4.60229
10.355	113.623	4.67065
10.3601	116.701	4.73901
10.3667	121.228	4.807373
10.3722	120.788	4.87573
10.3778	123.023	4.94409
10.3839	126.871	5.01245
10.3892	134.898	5.08081
10.3947	141.608	5.14917
10.4003	149.271	5.21753
10.4061	156.072	5.28589
10.4109	157.882	5.354248
10.4176	160.223	5.42261
10.424	164.838	5.49097
10.4287	163.829	5.55933
10.4343	165.033	5.62769
10.4397	169.706	5.69604
10.4457	173.454	5.7644
10.4526	182.411	5.83276
10.4575	191.039	5.901123
10.46325	194.756	5.96948
10.4684	198.37	6.03784
10.4744	204.176	6.1062
10.4798	207.826	6.17456
10.48632	207.471	6.24292
10.49198	208.45	6.31128
10.49719	212.18	6.37964
10.5031	212.975	6.447998
10.508	220.49	6.51636
10.5147	228.539	6.58472
10.52	235.318	6.65308
10.5261	238.525	6.72144
10.5312	244.747	6.78979
10.5369	252.597	6.85815
10.5424	250.62	6.92651
10.5476	250.978	6.994873
10.5553	254.907	7.06323
10.561	255.569	7.13159
10.5664	259.264	7.19995
10.571	268.401	7.26831
10.5777	275.611	7.33667
10.58304	279.211	7.40503
10.5883	285.3	7.47339
10.5938	294.314	7.541748
10.6003	294.597	7.61011
10.6051	292.767	7.67847
10.61059	296.027	7.74683
10.6167	296.853	7.81519
10.6223	300.2	7.88354
10.6279	306.443	7.9519
10.6349	315.785	8.02026
10.6402	319.096	8.088623
10.64614	324.236	8.15698
10.652	334.261	8.22534
10.6556	337.703	8.2937
10.6628	337.539	8.36206
10.668	338.697	8.43042
10.6737	340.552	8.49878
10.6798	341.8168	8.56714
10.68566	345.702	8.635498
10.6905	352.15	8.70386
10.6966	359.195	8.77222
10.7025	363.794	8.84058
10.70869	373.554	8.90894
10.713	378.638	8.97729
10.7196	381.5274	9.04565
10.7252	382.216	9.11401
10.7307	382.586	9.182373
10.7365	382.371	9.25073
10.7424	386.235	9.31909
10.7474	390.093	9.38745
10.7541	395.592	9.45581
10.75969	401.772	9.52417
10.76521	411.99	9.59253
10.7716	417.411	9.66089
10.777	421.664	9.729248
10.7819	426.64	9.79761
10.78823	424.22	9.86597
10.7935	424.554	9.93433
10.7991	426.0788	10.0027
10.8043	429.179	10.071
10.8112	432.267	10.1394
10.8171	436.879	10.2078
10.8217	449.609	10.2761
10.8282	455.808	10.3445
10.8339	460.508	10.4128
10.8396	466.028	10.4812
10.8446	467.058	10.5496
10.8507	465.765	10.61792
10.85667	467.7695	10.6863
10.8619	470.289	10.7546
10.8678	471.297	10.823
10.8741	475.709	10.8914
10.8791	486.251	10.9597
10.885	493.749	11.0281
10.8905	499.628	11.0964
10.896	506.465	11.1648
10.9023	510.104	11.2332
10.9069	506.141	11.3015
10.9131	508.776	11.3699
10.9182	510.059	11.4382
10.92382	510.481	11.5066
10.9292	511.273	11.575
10.9363	520.8	11.6433
10.94154	531.063	11.71167
10.9464	534.925	11.78
10.953	540.635	11.8484
10.9591	547.478	11.9167
10.9647	548.538	11.9851
10.97	549.495	12.0535
10.9763	549.327	12.1218
10.9807	549.3	12.1902
10.989	549.078	12.2585
10.9929	555.113	12.3269
10.9984	564.595	12.3953
11.00542	571.135	12.4636
11.0105	577.364	12.532
11.01643	584.496	12.6003
11.0213	587.634	12.6687
11.0265	590.656	12.7371
11.0327	588.629	12.80542
11.0383	588.469	12.8738
11.044	587.69	12.9421
11.0496	592.165	13.0105
11.0555	599.786	13.0789
11.0614	606.779	13.1472
11.067	611.844	13.2156
11.07208	620.328	13.2839
11.0783	624.235	13.3523
11.083	629.142	13.4207
11.0898	630.078	13.489
11.0951	629.208	13.5574
11.1004	625.361	13.6257
11.1076	629.17	13.6941
11.1126	634.105	13.7625
11.11883	639.606	13.8308
11.1237	647.9	13.89917
11.1292	655.299	13.9675
11.1359	660.208	14.0359
11.1394	667.359	14.1042
11.1471	670.0863	14.1726
11.1526	666.483	14.241
11.158	662.984	14.3093
11.1642	666.945	14.3777
11.1695	670.376	14.446
11.17471	673.405	14.5144
11.1804	679.805	14.5828
11.18611	691.697	14.6511
11.1921	695.308	14.7195
11.1972	700.849	14.7878
11.20327	707.846	14.8562
11.2092	706.086	14.9246
11.2149	703.212	14.99292
11.2202	703.76	15.0613
11.2261	709.306	15.1296
11.2323	708.8006	15.198
11.2378	715.3385	15.2664
11.2436	722.158	15.3347
11.2486	729.288	15.4031
11.2546	734.889	15.4714
11.2603	742.893	15.5398
11.2662	744.078	15.6082
11.2718	740.181	15.6765
11.2788	741.633	15.7449
11.2838	744.706	15.8132
11.2883	744.6861	15.8816
11.29386	747.484	15.95
11.3005	754.477	16.0183
11.3064	761.936	16.08667
11.3106	768.464	16.155
11.3174	775.177	16.2234
11.32378	778.783	16.2917
11.32828	777.3	16.3601
11.3351	777.246	16.4285
11.3412	780.7854	16.4968
11.3458	778.304	16.5652
11.3512	779.462	16.6335
11.357	786.0224	16.7019
11.3637	791.881	16.7703
11.3691	801.524	16.8386
11.37336	807.725	16.907
11.3798	811.892	16.9753
11.3861	812.123	17.0437
11.3915	812.801	17.1121
11.3974	816.124	17.18042
11.4027	813.291	17.2488
11.4084	814.177	17.3171
11.41404	817.786	17.3855
11.4197	822.001	17.4539
11.4254	830.0321	17.5222
11.4321	838.124	17.5906
11.4356	841.7196	17.6589
11.4424	843.686	17.7273
11.448	848.388	17.7957
11.4543	849.077	17.864
11.4599	846.2099	17.9324
11.4654	846.579	18.0007
11.4723	848.965	18.0691
11.4764	850.421	18.1375
11.483	858.318	18.2058
11.4882	867.001	18.27417
11.4934	869.876	18.3425
11.5	871.898	18.4109
11.5053	878.705	18.4792
11.5108	881.35	18.5476
11.5169	880.323	18.616
11.5225	877.23	18.6843
11.5284	880.22	18.7527
11.5325	879.366	18.821
11.54	883.494	18.8894
11.5454	892.112	18.9578
11.5508	898.396	19.0261
11.5564	898.969	19.0945
11.5629	904.846	19.1628
11.56825	910.755	19.2312
11.5736	909.314	19.2996
11.5792	909.719	19.36792
11.5839	907.866	19.4363
11.5918	906.442	19.5046
11.5957	910.316	19.573
11.6019	914.613	19.6414
11.60809	922.76	19.7097
11.6139	922.211	19.7781
11.6188	930.407	19.8464
11.6265	936.965	19.9148
11.6307	935.848	19.9832
11.63372	924.731	20.0125

Data Header:			0.254_solid_dimension_typei_090_r0			Time:	40.0176	s	4/15/2019 2:31:45 PM
Data Acquisition:	Timed
Station Name:	ft40.cfg
Test File Name:	monotonic_0.2540_typei_solid_090_dimension.tst
Displacement	Force	Running Time
mm	N	s
11.6333	929.846	20.0222
11.6395	936.052	20.0906
11.6444	945.062	20.1589
11.6506	943.842	20.2273
11.6559	945.543	20.2957
11.6623	946.987	20.364
11.6677	945.639	20.4324
11.6736	940.513	20.5007
11.6797	943.06	20.5691
11.6852	947.379	20.6375
11.6903	949.881	20.7058
11.69714	956.458	20.77417
11.7024	962.245	20.8425
11.7075	964.6925	20.9109
11.7136	964.153	20.9792
11.7206	967.903	21.0476
11.72443	968.209	21.116
11.7304	962.352	21.1843
11.73748	961.951	21.2527
11.743	964.904	21.321
11.7477	966.122	21.3894
11.754	970.6485	21.4578
11.7594	976.0885	21.5261
11.7657	980.9978	21.5945
11.7704	980.485	21.6628
11.7772	984.143	21.7312
11.782	984.67	21.7996
11.7871	981.792	21.86792
11.793	980.558	21.9363
11.79985	979.315	22.0046
11.8051	979.748	22.073
11.8104	982.489	22.1414
11.8168	987.337	22.2097
11.8213	988.788	22.2781
11.82776	992.59	22.3464
11.8331	996.975	22.4148
11.83927	998.306	22.4832
11.8456	993.528	22.5515
11.8505	992.061	22.6199
11.8563	988.88	22.6882
11.8625	988.462	22.7566
11.86753	990.945	22.825
11.873	995.225	22.8933
11.879	995.929	22.96167
11.8846	999.723	23.03
11.8914	1005.791	23.0984
11.8964	1006.83	23.1667
11.9014	1003.69	23.2351
11.9074	1001.707	23.3035
11.9134	998.436	23.3718
11.9184	994.553	23.4402
11.9246	997.479	23.5085
11.9304	1000.7	23.5769
11.9355	996.837	23.6453
11.9424	1001.697	23.7136
11.9483	1008.84	23.782
11.9538	1009.58	23.8503
11.9585	1005.49	23.9187
11.96497	1006.94	23.9871
11.9711	1006.39	24.05542
11.9753	998.912	24.1238
11.9805	998.401	24.1921
11.9876	1000.94	24.2605
11.9925	999.076	24.3289
11.9978	999.768	24.3972
12.0039	1006.99	24.4656
12.01	1011.43	24.5339
12.0159	1010.07	24.6023
12.02212	1009.74	24.6707
12.0272	1008.81	24.739
12.032	1002.73	24.8074
12.0389	1000.43	24.8757
12.0436	1001.58	24.9441
12.0497	998.661	25.0125
12.0543	998.64	25.0808
12.0618	1004.18	25.14917
12.068	1009.04	25.2175
12.0721	1008.87	25.2859
12.0792	1009.83	25.3542
12.0843	1009.861	25.4226
12.09	1006.1	25.491
12.0951	1001.15	25.5593
12.1018	999.381	25.6277
12.10627	997.2627	25.696
12.1117	995.001	25.7644
12.1182	997.674	25.8328
12.1241	1005.26	25.9011
12.129	1005.9	25.9695
12.13567	1007.14	26.0378
12.1413	1009.201	26.1062
12.1466	1005.59	26.1746
12.1523	1003.31	26.24292
12.158	998.44	26.3113
12.1644	994.251	26.3796
12.1709	991.899	26.448
12.1744	996.432	26.5164
12.1812	998.232	26.5847
12.1865	1001.07	26.6531
12.19221	1004.15	26.7214
12.19698	1006.12	26.7898
12.2043	1003.5	26.8582
12.2089	1002.11	26.9265
12.2146	997.711	26.9949
12.2208	991.732	27.0632
12.22578	988.308	27.1316
12.2319	991.803	27.2
12.2379	993.062	27.2683
12.2435	992.913	27.33667
12.2484	998.11	27.405
12.25417	1002.17	27.4734
12.2604	1000.26	27.5417
12.267	999.063	27.6101
12.2722	997.209	27.6785
12.2781	989.582	27.7468
12.2839	986.576	27.8152
12.2894	989.48	27.8835
12.2938	989.745	27.9519
12.3	989.691	28.0203
12.3054	994.252	28.0886
12.3114	996.76	28.157
12.3164	996.82	28.2253
12.3235	996.431	28.2937
12.32934	997.872	28.3621
12.3343	991.1955	28.43042
12.3397	984.058	28.4988
12.3465	986.468	28.5671
12.352	987.664	28.6355
12.3571	986.06	28.7039
12.3634	987.672	28.7722
12.36831	993.615	28.8406
12.3737	993.658	28.9089
12.3795	994.8432	28.9773
12.386	995.292	29.0457
12.3924	989.613	29.114
12.3965	983.33	29.1824
12.4032	984.4024	29.2507
12.4078	983.66	29.3191
12.4148	982.1095	29.3875
12.4195	983.939	29.4558
12.42683	987.452	29.52417
12.4312	989.97	29.5925
12.43751	994.106	29.6609
12.4433	993.752	29.7292
12.4489	989.147	29.7976
12.45575	985.049	29.866
12.46055	984.768	29.9343
12.46578	982.87	30.0027
12.4711	981.351	30.071
12.4769	980.145	30.1394
12.4831	983.41	30.2078
12.4886	985.671	30.2761
12.49473	990.835	30.3445
12.4992	991.8421	30.4128
12.5053	987.43	30.4812
12.5108	986.025	30.5496
12.5166	984.439	30.61792
12.52287	980.953	30.6863
12.5286	977.981	30.7546
12.5346	979.391	30.823
12.5393	981.35	30.8914
12.5445	984.394	30.9597
12.5502	987.004	31.0281
12.5567	990.874	31.0964
12.56194	987.769	31.1648
12.5682	984.981	31.2332
12.5749	986.7522	31.3015
12.5798	982.843	31.3699
12.5851	976.804	31.4382
12.591	978.2915	31.5066
12.5971	977.911	31.575
12.6022	979.282	31.6433
12.6077	985.163	31.71167
12.6132	988.7439	31.78
12.6198	986.672	31.8484
12.6247	985.482	31.9167
12.6302	989.213	31.9851
12.63762	983.401	32.0535
12.6418	978.6098	32.1218
12.64862	977.36	32.1902
12.6541	977.245	32.2585
12.6601	976.27	32.3269
12.6646	981.694	32.3953
12.67065	985.473	32.4636
12.6758	983.361	32.532
12.6823	984.202	32.6003
12.6877	987.973	32.6687
12.6937	986.481	32.7371
12.6993	981.238	32.80542
12.70472	977.2536	32.8738
12.7107	976.739	32.9421
12.7167	976.2074	33.0105
12.7224	977.865	33.0789
12.7282	984.148	33.1472
12.734	982.169	33.2156
12.7379	982.169	33.2839
12.7453	988.126	33.3523
12.7507	986.781	33.4207
12.7554	982.575	33.489
12.7621	978.9007	33.5574
12.76825	977.973	33.6257
12.7728	975.391	33.6941
12.7796	977.059	33.7625
12.7843	979.06	33.8308
12.79	980.442	33.89917
12.7959	983.049	33.9675
12.8016	986.617	34.0359
12.807	988.011	34.1042
12.813	984.739	34.1726
12.8187	981.894	34.241
12.8237	977.56	34.3093
12.8306	976.436	34.3777
12.8356	976.2951	34.446
12.8413	977.275	34.5144
12.848	977.18	34.5828
12.8528	978.9375	34.6511
12.8586	985.483	34.7195
12.8633	984.929	34.7878
12.8697	985.243	34.8562
12.8752	984.734	34.9246
12.8821	978.462	34.99292
12.8871	975.62	35.0613
12.8927	975.898	35.1296
12.8988	975.9234	35.198
12.9038	973.517	35.2664
12.9103	976.963	35.3347
12.9159	983.148	35.4031
12.9211	984.401	35.4714
12.9273	984.007	35.5398
12.9324	984.233	35.6082
12.9373	981.747	35.6765
12.9446	977.685	35.7449
12.9493	975.0481	35.8132
12.9559	975.743	35.8816
12.96056	971.49	35.95
12.9671	972.466	36.0183
12.9729	981.0271	36.08667
12.9776	984.637	36.155
12.9844	982.301	36.2234
12.991	984.5448	36.2917
12.99384	983.933	36.3601
13.0023	979.153	36.4285
13.0071	976.715	36.4968
13.012	976.202	36.5652
13.0185	972.341	36.6335
13.0224	971.599	36.7019
13.0303	977.885	36.7703
13.0355	981.291	36.8386
13.041	983.015	36.907
13.0473	983.862	36.9753
13.0519	984.854	37.0437
13.0585	981.15	37.1121
13.0635	978.83	37.18042
13.0691	974.777	37.2488
13.0745	971.754	37.3171
13.07955	971.1322	37.3855
13.08687	975.528	37.4539
13.0924	978.739	37.5222
13.09796	980.525	37.5906
13.1038	982.097	37.6589
13.1091	982.773	37.7273
13.1153	984.073	37.7957
13.1205	979.565	37.864
13.1261	976.596	37.9324
13.1323	971.44	38.0007
13.1362	969.421	38.0691
13.1438	973.383	38.1375
13.1492	973.781	38.2058
13.1542	977.689	38.27417
13.1609	981.329	38.3425
13.1663	981.914	38.4109
13.1724	981.608	38.4792
13.1766	982.6701	38.5476
13.1832	977.713	38.616
13.1892	973.176	38.6843
13.1953	971.28	38.7527
13.2006	972.471	38.821
13.2065	974.463	38.8894
13.2122	973.6842	38.9578
13.2174	977.058	39.0261
13.2231	981.196	39.0945
13.22912	980.988	39.1628
13.2349	982.778	39.2312
13.2398	982.052	39.2996
13.2458	973.855	39.36792
13.2524	969.469	39.4363
13.25797	971.602	39.5046
13.26347	971.246	39.573
13.26848	969.136	39.6414
13.2746	976.217	39.7097
13.2797	976.427	39.7781
13.2862	976.6701	39.8464
13.2919	980.0166	39.9148
13.29631	981.635	39.9832
13.29845	969.087	40.0125

Data Header:			0.254_solid_dimension_typei_090_r0			Time:	41.45752	s	4/15/2019 2:31:46 PM
Data Acquisition:	Timed
Station Name:	ft40.cfg
Test File Name:	monotonic_0.2540_typei_solid_090_dimension.tst
Displacement	Force	Running Time
mm	N	s
13.3011	974.577	40.0222
13.3005	980.185	40.032
13.3021	977.5636	40.0417
13.303	976.338	40.0515
13.305	970.201	40.0613
13.30423	966.461	40.071
13.3057	973.727	40.0808
13.3065	974.948	40.0906
13.3072	980.536	40.1003
13.3085	976.6825	40.1101
13.3089	968.349	40.1199
13.3102	967.184	40.1296
13.3093	970.466	40.1394
13.3113	974.35	40.14917
13.3128	978.147	40.1589
13.3119	976.018	40.1687
13.3136	974.677	40.1785
13.3141	970.421	40.1882
13.3158	966.7431	40.198
13.3158	970.366	40.2078
13.3168	975.098	40.2175
13.3183	978.89	40.2273
13.3189	972.552	40.2371
13.31959	968.711	40.2468
13.3205	965.148	40.2566
13.3213	969.559	40.2664
13.3216	971.23	40.2761
13.3228	973.502	40.2859
13.32238	973.857	40.2957
13.324	972.555	40.30542
13.3248	967.1	40.3152
13.3263	963.278	40.325
13.3263	969.761	40.3347
13.3263	973.338	40.3445
13.3288	973.531	40.3542
13.3295	972.549	40.364
13.33027	964.053	40.3738
13.3309	964.991	40.3835
13.3315	964.737	40.3933
13.3331	967.699	40.4031
13.3337	972.425	40.4128
13.3349	971.751	40.4226
13.334	970.06	40.4324
13.3351	959.128	40.4421
13.3363	961.326	40.4519
13.3365	966.73	40.46167
13.3375	969.735	40.4714
13.3387	971.1601	40.4812
13.34	963.742	40.491
13.34047	958.284	40.5007
13.3411	958.107	40.5105
13.3428	957.143	40.5203
13.3435	963.426	40.53
13.3435	967.22	40.5398
13.3445	962.972	40.5496
13.346	952.596	40.5593
13.3538	-2.92464	40.5691
13.3529	-44.1372	40.5789
13.35361	-27.346	40.5886
13.35409	-28.0074	40.5984
13.3523	-47.8229	40.6082
13.3534	-43.477	40.61792
13.3538	-50.7608	40.6277
13.3536	-45.8212	40.6375
13.3539	-43.7628	40.6472
13.3555	-37.9041	40.657
13.3556	-34.7227	40.6667
13.3568	-41.8596	40.6765
13.3576	-47.2856	40.6863
13.3579	-49.1604	40.696
13.3583	-43.66423	40.7058
13.35944	-39.3434	40.7156
13.3609	-37.9787	40.7253
13.3609	-39.5501	40.7351
13.3621	-42.5869	40.7449
13.3636	-48.8877	40.7546
13.3629	-44.7277	40.7644
13.3637	-44.70874	40.77417
13.3651	-35.9058	40.7839
13.3666	-37.98893	40.7937
13.3665	-46.0469	40.8035
13.3675	-47.3393	40.8132
13.3689	-47.3933	40.823
13.36903	-42.4305	40.8328
13.37	-40.2509	40.8425
13.3711	-39.7097	40.8523
13.3723	-37.6534	40.8621
13.3722	-45.709	40.8718
13.3735	-50.1162	40.8816
13.3737	-47.449	40.8914
13.375	-41.9957	40.9011
13.3747	-35.0201	40.9109
13.37625	-38.8557	40.9207
13.3776	-43.7328	40.93042
13.3773	-47.1165	40.9402
13.3789	-47.3912	40.95
13.3797	-44.40855	40.9597
13.381	-40.77705	40.9695
13.3816	-39.6219	40.9792
13.3813	-38.3937	40.989
13.3837	-44.57267	40.9988
13.3833	-49.1072	41.0085
13.3838	-46.3133	41.0183
13.3847	-40.06303	41.0281
13.3869	-37.302	41.0378
13.38755	-39.9301	41.0476
13.3876	-44.75375	41.0574
13.3888	-47.5758	41.0671
13.38833	-48.1222	41.0769
13.3898	-44.9135	41.08667
13.3908	-39.1442	41.0964
13.3913	-35.6083	41.1062
13.3921	-40.1506	41.116
13.393	-50.1336	41.1257
13.3941	-49.0328	41.1355
13.3949	-43.5528	41.1453
13.3954	-39.4822	41.155
13.396	-35.70575	41.1648
13.3971	-40.4153	41.1746
13.3984	-44.3362	41.1843
13.3991	-48.2412	41.1941
13.4006	-50.3191	41.2039
13.3999	-41.4251	41.2136
13.402	-36.2789	41.2234
13.4024	-36.5942	41.2332
13.404	-42.179	41.24292
13.4038	-51.6788	41.2527
13.40422	-50.28104	41.2625
13.4052	-42.5099	41.2722
13.4067	-39.2001	41.282
13.40706	-38.0035	41.2917
13.4075	-42.7851	41.3015
13.409	-44.6543	41.3113
13.4086	-50.3665	41.321
13.4099	-45.843	41.3308
13.4118	-39.3217	41.3406
13.4112	-35.3247	41.3503
13.4126	-38.7393	41.3601
13.4131	-47.21862	41.3699
13.4143	-49.4354	41.3796
13.4154	-44.3154	41.3894
13.4164	-40.8495	41.39917
13.4169	-38.1159	41.4089
13.418	-38.13171	41.4187
13.4193	-42.2877	41.4285
13.4189	-45.1624	41.4382
13.4204	-46.2886	41.448