File: data/processed_data_files/tensile/0.254_hd_uprint_typeiv_090_r(3).dat
MTS793|BTW|ENU|1|2|.|/|:|1|0|0|A

Data Header:			0.254_hd_uprint_typeiv_090_r0			Time:	20.0188	s	4/13/2019 11:00:47 PM
Data Acquisition:	Timed
Station Name:	ft40.cfg
Test File Name:	monotonic_0.2540_typeiv_solid_4545_uprint.tst
Displacement	Force	Running Time
mm	N	s
-40.0419	-204.232	0.0231934
-40.0387	-202.904	0.0915527
-40.0345	-200.671	0.159912
-40.0272	-199.156	0.228271
-40.023	-197.923	0.296631
-40.01749	-198.066	0.36499
-40.011	-193.069	0.43335
-40.0048	-188.014	0.501709
-39.9997	-183.853	0.570068
-39.9941	-178.047	0.638428
-39.988	-172.104	0.706787
-39.983	-169.209	0.775146
-39.9774	-166.1833	0.843506
-39.9722	-165.2193	0.911865
-39.9649	-163.2438	0.980225
-39.961	-164.498	1.048584
-39.9549	-163.086	1.11694
-39.9494	-154.532	1.1853
-39.9429	-151.348	1.25366
-39.93779	-147.702	1.32202
-39.9327	-140.061	1.39038
-39.925	-135.582	1.45874
-39.9216	-133.01	1.5271
-39.9145	-129.284	1.595459
-39.9096	-127.997	1.66382
-39.9054	-132.02	1.73218
-39.8983	-130.076	1.80054
-39.8922	-122.2649	1.8689
-39.8858	-120.12	1.93726
-39.88068	-117.927	2.00562
-39.8745	-108.264	2.07397
-39.8693	-104.751	2.142334
-39.8639	-100.768	2.21069
-39.8571	-96.4489	2.27905
-39.8522	-92.8961	2.34741
-39.8464	-96.6116	2.41577
-39.8419	-96.2888	2.48413
-39.8355	-89.7421	2.55249
-39.8297	-86.847	2.62085
-39.8233	-84.1664	2.689209
-39.8177	-77.54882	2.75757
-39.8123	-72.2096	2.82593
-39.8071	-67.0383	2.89429
-39.8	-63.3836	2.96265
-39.7949	-61.3926	3.03101
-39.7882	-63.718	3.09937
-39.7841	-62.3342	3.16772
-39.7774	-56.3463	3.236084
-39.7728	-54.744	3.30444
-39.767	-51.6788	3.3728
-39.7611	-46.0336	3.44116
-39.7557	-39.6327	3.50952
-39.7498	-34.6288	3.57788
-39.7442	-33.0046	3.64624
-39.7384	-28.9059	3.7146
-39.7332	-30.5722	3.782959
-39.727	-28.9692	3.85132
-39.7218	-24.1812	3.91968
-39.7148	-22.6502	3.98804
-39.7089	-21.6432	4.0564
-39.7048	-16.1325	4.12476
-39.6994	-9.97671	4.19312
-39.6912	-6.200922	4.26147
-39.6878	-0.808487	4.329834
-39.6817	2.46557	4.39819
-39.6762	3.4058	4.46655
-39.6687	5.13979	4.53491
-39.6646	9.21641	4.60327
-39.6589	9.63999	4.67163
-39.6526	12.2221	4.73999
-39.6479	17.3926	4.80835
-39.6412	20.1141	4.876709
-39.636	26.6562	4.94507
-39.6301	31.2926	5.01343
-39.624	34.9273	5.08179
-39.6179	35.1028	5.15015
-39.6133	38.5666	5.21851
-39.6063	44.2557	5.28687
-39.6029	44.5622	5.35522
-39.5964	46.4972	5.423584
-39.5897	49.6232	5.49194
-39.5841	49.3317	5.5603
-39.5792	56.1408	5.62866
-39.5729	59.7607	5.69702
-39.5663	64.7697	5.76538
-39.5609	66.3879	5.83374
-39.55666	69.21637	5.9021
-39.5503	77.1604	5.970459
-39.5444	76.7798	6.03882
-39.539	77.5372	6.10718
-39.5328	84.0935	6.17554
-39.5277	83.0143	6.2439
-39.5217	86.252	6.31226
-39.5157	92.356	6.38062
-39.5105	96.4688	6.44897
-39.506	98.5013	6.517334
-39.4991	102.369	6.58569
-39.4934	110.402	6.65405
-39.4871	109.631	6.72241
-39.4824	109.441	6.79077
-39.4763	115.128	6.85913
-39.4704	113.505	6.92749
-39.4656	116.143	6.99585
-39.4601	122.584	7.064209
-39.4532	126.773	7.13257
-39.4471	126.964	7.20093
-39.4434	132.458	7.26929
-39.43668	141.078	7.33765
-39.4311	142.086	7.40601
-39.4251	142.83	7.47437
-39.4203	144.599	7.54272
-39.4134	147.148	7.611084
-39.40852	150.378	7.67944
-39.4027	152.8687	7.7478
-39.3979	155.837	7.81616
-39.3913	157.167	7.88452
-39.3856	162.884	7.95288
-39.37867	171.136	8.02124
-39.3736	171.635	8.0896
-39.368	173.258	8.157959
-39.3613	177.401	8.22632
-39.3566	176.926	8.29468
-39.3499	179.389	8.36304
-39.3455	181.246	8.4314
-39.3399	186.1734	8.49976
-39.3336	187.68	8.56812
-39.3289	191.654	8.63647
-39.3216	201.687	8.704834
-39.3174	204.046	8.77319
-39.3112	206.982	8.84155
-39.306	206.663	8.90991
-39.2995	208.702	8.97827
-39.2948	210.673	9.04663
-39.2879	211.093	9.11499
-39.283	214.172	9.18335
-39.2762	217.358	9.251709
-39.2717	220.605	9.32007
-39.2657	227.857	9.38843
-39.2603	231.932	9.45679
-39.2541	235.924	9.52515
-39.2475	238.187	9.59351
-39.2436	238.631	9.66187
-39.2359	241.065	9.73022
-39.2314	242.121	9.798584
-39.226	242.174	9.86694
-39.2202	244.397	9.9353
-39.2151	249.356	10.0037
-39.2083	256.799	10.072
-39.2032	260.779	10.1404
-39.1977	265.423	10.20874
-39.1909	267.844	10.2771
-39.18681	268.206	10.3455
-39.1787	272.148	10.4138
-39.175	273.104	10.4822
-39.1684	270.957	10.5505
-39.1633	271.179	10.6189
-39.1571	278.674	10.6873
-39.15197	282.9382	10.7556
-39.1453	286.9494	10.824
-39.1396	293.015	10.8923
-39.1347	297.955	10.9607
-39.1287	297.7908	11.0291
-39.1231	300.519	11.0974
-39.1166	301.259	11.1658
-39.1118	298.419	11.2341
-39.1063	298.975	11.30249
-39.1001	304.6	11.37085
-39.0935	309.235	11.4392
-39.0888	312.443	11.5076
-39.0828	317.033	11.5759
-39.0776	323.876	11.6443
-39.07222	324.038	11.7126
-39.0662	327.011	11.781
-39.05965	328.068	11.8494
-39.0546	327.467	11.9177
-39.0497	326.319	11.9861
-39.0445	331.139	12.0544
-39.03817	334.345	12.1228
-39.0323	336.067	12.1912
-39.0268	341.8754	12.2595
-39.0208	348.523	12.3279
-39.0148	350.215	12.39624
-39.0089	352.473	12.4646
-39.004	355.2373	12.533
-38.9987	353.08	12.6013
-38.9918	351.914	12.6697
-38.98764	355.364	12.738
-38.9806	359.532	12.8064
-38.9755	359.686	12.8748
-38.9683	362.8941	12.9431
-38.9643	369.758	13.0115
-38.95789	373.035	13.0798
-38.95229	375.368	13.1482
-38.9471	380.0452	13.2166
-38.9414	377.291	13.2849
-38.9345	376.077	13.3533
-38.9294	380.331	13.4216
-38.9242	380.887	13.48999
-38.9187	381.25	13.55835
-38.9133	385.849	13.6267
-38.9068	388.53	13.6951
-38.9012	392.654	13.7634
-38.8944	398.339	13.8318
-38.8891	399.937	13.9001
-38.8832	399.151	13.9685
-38.8788	398.276	14.0369
-38.8722	400.399	14.1052
-38.8664	401.503	14.1736
-38.8609	401.12	14.2419
-38.8555	403.521	14.3103
-38.84972	406.548	14.3787
-38.8434	409.772	14.447
-38.8389	414.335	14.5154
-38.8326	415.949	14.58374
-38.8275	414.228	14.6521
-38.8205	415.574	14.7205
-38.8153	416.857	14.7888
-38.8096	418.123	14.8572
-38.80455	416.403	14.9255
-38.7982	418.303	14.9939
-38.7926	418.217	15.0623
-38.7861	420.863	15.1306
-38.7816	426.026	15.199
-38.7756	427.968	15.2673
-38.7709	426.8053	15.3357
-38.7649	428.237	15.4041
-38.7587	428.659	15.4724
-38.7529	426.26	15.5408
-38.748	426.158	15.6091
-38.7411	427.098	15.67749
-38.7365	424.094	15.74585
-38.7298	427.861	15.8142
-38.7249	432.989	15.8826
-38.7183	433.311	15.9509
-38.7129	430.787	16.0193
-38.7082	433.045	16.0876
-38.7025	436.781	16.156
-38.6961	431.172	16.2244
-38.6895	430.572	16.2927
-38.6844	432.487	16.3611
-38.67915	427.292	16.4294
-38.6743	429.713	16.4978
-38.6683	432.44	16.5662
-38.6616	433.575	16.6345
-38.657	431.4216	16.7029
-38.6514	433.483	16.77124
-38.6446	437.6553	16.8396
-38.6387	434.878	16.908
-38.6331	431.476	16.9763
-38.62759	434.036	17.0447
-38.6215	429.761	17.113
-38.6164	428.717	17.1814
-38.6107	431.521	17.2498
-38.6048	431.559	17.3181
-38.60014	429.219	17.3865
-38.5935	431.279	17.4548
-38.5882	437.495	17.5232
-38.5822	433.699	17.5916
-38.5769	431.021	17.6599
-38.5705	430.975	17.7283
-38.5648	426.977	17.7966
-38.55793	425.507	17.86499
-38.5537	425.379	17.93335
-38.5484	428.03	18.0017
-38.5424	424.664	18.0701
-38.53616	427.159	18.1384
-38.5296	431.812	18.2068
-38.5254	430.249	18.2751
-38.5192	428.331	18.3435
-38.5127	428.812	18.4119
-38.5077	424.5065	18.4802
-38.503	423.159	18.5486
-38.4971	421.796	18.6169
-38.4919	420.661	18.6853
-38.4847	418.588	18.7537
-38.4798	422.201	18.822
-38.4737	425.565	18.8904
-38.4675	427.037	18.95874
-38.4614	426.684	19.0271
-38.4558	424.33	19.0955
-38.4523	422.941	19.1638
-38.4462	420.769	19.2322
-38.4392	418.535	19.3005
-38.4344	415.602	19.3689
-38.4284	415.91	19.4373
-38.4223	417.112	19.5056
-38.4165	423.62	19.574
-38.4115	422.714	19.6423
-38.4054	422.911	19.7107
-38.40181	422.583	19.7791
-38.3952	420.56	19.8474
-38.3889	420.086	19.9158
-38.3831	417.01	19.9841
-38.3791	420.77	20.0134

Data Header:			0.254_hd_uprint_typeiv_090_r0			Time:	35.2036	s	4/13/2019 11:01:02 PM
Data Acquisition:	Timed
Station Name:	ft40.cfg
Test File Name:	monotonic_0.2540_typeiv_solid_4545_uprint.tst
Displacement	Force	Running Time
mm	N	s
-38.3801	422.455	20.0232
-38.3738	421.154	20.0818
-38.3698	422.392	20.1404
-38.364	419.735	20.199
-38.3596	416.849	20.2576
-38.3554	416.151	20.3162
-38.3503	416.9801	20.3748
-38.3453	412.819	20.43335
-38.3404	413.177	20.4919
-38.3366	415.53	20.5505
-38.3315	414.308	20.6091
-38.325	417.203	20.6677
-38.3204	416.803	20.7263
-38.3165	416.559	20.7849
-38.3108	418.256	20.8435
-38.3057	420.679	20.9021
-38.3013	418.154	20.9607
-38.2971	418.391	21.0193
-38.2917	419.345	21.0779
-38.2871	413.273	21.1365
-38.2819	414.4679	21.1951
-38.2776	409.96	21.2537
-38.2716	412.663	21.3123
-38.2672	407.925	21.37085
-38.2615	412.429	21.4294
-38.2583	407.993	21.488
-38.2531	411.964	21.5466
-38.2474	411.331	21.6052
-38.2426	414.972	21.6638
-38.2385	413.883	21.7224
-38.2327	417.663	21.781
-38.2272	416.376	21.8396
-38.2234	417.585	21.8982
-38.21806	417.616	21.9568
-38.2133	416.086	22.0154
-38.2087	413.498	22.074
-38.2041	413.1033	22.1326
-38.1992	412.811	22.1912
-38.1925	410.248	22.2498
-38.1895	409.66	22.30835
-38.1833	410.351	22.3669
-38.1783	409.224	22.4255
-38.1743	411.624	22.4841
-38.1698	411.318	22.5427
-38.1647	413.151	22.6013
-38.1597	413.095	22.6599
-38.155	416.763	22.7185
-38.1504	414.125	22.7771
-38.1439	414.3952	22.8357
-38.1409	414.196	22.8943
-38.1359	411.482	22.9529
-38.1304	411.947	23.0115
-38.1268	410.596	23.0701
-38.12048	409.014	23.1287
-38.1162	404.6254	23.1873
-38.1103	409.344	23.24585
-38.1064	402.637	23.3044
-38.1014	409.167	23.363
-38.0957	406.074	23.4216
-38.092	408.623	23.4802
-38.0869	408.104	23.5388
-38.0812	412.525	23.5974
-38.0765	410.869	23.656
-38.0725	413.247	23.7146
-38.0667	413.6387	23.7732
-38.0622	411.924	23.8318
-38.0569	412.01	23.8904
-38.0516	413.539	23.949
-38.0466	411.728	24.0076
-38.0423	408.976	24.0662
-38.0382	408.519	24.1248
-38.0329	405.751	24.18335
-38.0271	406.398	24.2419
-38.0223	409.228	24.3005
-38.0176	408.053	24.3591
-38.0129	409.922	24.4177
-38.0087	409.396	24.4763
-38.00322	412.258	24.5349
-37.9986	411.713	24.5935
-37.99366	414.345	24.6521
-37.9895	412.821	24.7107
-37.9842	413.002	24.7693
-37.978	410.7424	24.8279
-37.9739	409.701	24.8865
-37.9694	407.799	24.9451
-37.9649	405.714	25.0037
-37.9602	406.45	25.0623
-37.9551	401.942	25.12085
-37.94862	405.906	25.1794
-37.9443	403.26	25.238
-37.9392	406.827	25.2966
-37.9365	403.94	25.3552
-37.9306	411.186	25.4138
-37.9261	406.637	25.4724
-37.92038	412.781	25.531
-37.9159	409.968	25.5896
-37.9107	411.98	25.6482
-37.9065	409.874	25.7068
-37.9017	411.191	25.7654
-37.8963	410.522	25.824
-37.8919	407.244	25.8826
-37.8862	407.682	25.9412
-37.8819	405.545	25.9998
-37.8759	403.757	26.05835
-37.87109	405.341	26.1169
-37.8672	406.247	26.1755
-37.8628	405.069	26.2341
-37.8581	407.369	26.2927
-37.8524	408.417	26.3513
-37.8473	407.765	26.4099
-37.8433	413.4321	26.4685
-37.8365	409.864	26.5271
-37.8325	412.299	26.5857
-37.8276	410.414	26.6443
-37.8232	409.797	26.7029
-37.8174	406.533	26.7615
-37.8128	407.129	26.8201
-37.8078	407.08	26.8787
-37.8031	401.9057	26.9373
-37.7984	403.101	26.99585
-37.7936	402.579	27.0544
-37.7883	403.004	27.113
-37.7849	401.556	27.1716
-37.7784	407.636	27.2302
-37.773	402.882	27.2888
-37.7685	410.047	27.3474
-37.7652	407.904	27.406
-37.75906	409.128	27.4646
-37.7546	407.523	27.5232
-37.7491	409.519	27.5818
-37.7435	407.479	27.6404
-37.739	406.572	27.699
-37.7343	406.816	27.7576
-37.7297	404.312	27.8162
-37.7253	403.543	27.8748
-37.72052	402.816	27.93335
-37.7147	404.559	27.9919
-37.7105	403.291	28.0505
-37.7059	405.5773	28.1091
-37.7005	406.459	28.1677
-37.6971	405.476	28.2263
-37.6903	408.823	28.2849
-37.6854	409.012	28.3435
-37.68158	409.8269	28.4021
-37.67474	408.686	28.4607
-37.6706	410.119	28.5193
-37.6666	405.673	28.5779
-37.6615	407.436	28.6365
-37.6582	404.323	28.6951
-37.6518	401.481	28.7537
-37.64904	401.214	28.8123
-37.6412	400.3562	28.87085
-37.6382	400.8541	28.9294
-37.6317	398.694	28.988
-37.6279	403.368	29.0466
-37.6218	401.2186	29.1052
-37.6185	406.45	29.1638
-37.6134	401.935	29.2224
-37.6071	408.24	29.281
-37.6029	405.243	29.3396
-37.5977	410.277	29.3982
-37.5935	403.087	29.4568
-37.5871	404.848	29.5154
-37.5831	405.067	29.574
-37.5787	403.568	29.6326
-37.5728	400.154	29.6912
-37.5687	401.422	29.7498
-37.5644	400.749	29.80835
-37.5595	398.458	29.8669
-37.5552	402.181	29.9255
-37.549	401.643	29.9841
-37.5441	403.032	30.0427
-37.5396	404.099	30.1013
-37.5346	406.186	30.1599
-37.5298	406.615	30.2185
-37.5251	407.088	30.2771
-37.5207	407.037	30.3357
-37.5148	404.961	30.3943
-37.5103	405.438	30.4529
-37.5059	404.088	30.5115
-37.5002	400.534	30.5701
-37.4956	398.79	30.6287
-37.4906	398.988	30.6873
-37.4846	396.333	30.74585
-37.4825	397.4624	30.8044
-37.47691	399.4213	30.863
-37.4704	396.808	30.9216
-37.4664	400.001	30.9802
-37.4607	400.785	31.0388
-37.4563	402.8454	31.0974
-37.45105	402.671	31.156
-37.4464	406.435	31.2146
-37.4414	401.452	31.2732
-37.4367	405.154	31.3318
-37.4322	401.963	31.3904
-37.428	400.98	31.449
-37.4213	397.29	31.5076
-37.4176	398.444	31.5662
-37.4131	396.5506	31.6248
-37.4077	397.115	31.68335
-37.4021	398.687	31.7419
-37.3979	397.078	31.8005
-37.3937	398.825	31.8591
-37.388	401.1543	31.9177
-37.3836	401.626	31.9763
-37.3789	400.9552	32.0349
-37.3744	403.048	32.0935
-37.3686	403.919	32.1521
-37.3636	401.47	32.2107
-37.3588	402.852	32.2693
-37.3548	399.19	32.3279
-37.3497	400.3844	32.3865
-37.3443	397.257	32.4451
-37.3393	396.065	32.5037
-37.3346	394.138	32.5623
-37.3311	394.249	32.62085
-37.3251	393.967	32.6794
-37.3193	393.097	32.738
-37.3148	394.101	32.7966
-37.3097	393.887	32.8552
-37.3055	396.307	32.9138
-37.3008	395.653	32.9724
-37.2949	399.095	33.031
-37.291	394.261	33.0896
-37.2868	398.205	33.1482
-37.281	393.943	33.2068
-37.2772	393.928	33.2654
-37.2716	388.745	33.324
-37.26543	389.019	33.3826
-37.2584	-34.2259	33.4412
-37.2552	-44.1316	33.4998
-37.2512	-44.51173	33.55835
-37.245	-46.3349	33.6169
-37.2413	-43.1576	33.6755
-37.236	-41.912	33.7341
-37.23127	-43.2064	33.7927
-37.2271	-40.55233	33.8513
-37.2221	-37.4086	33.9099
-37.2168	-39.4584	33.9685
-37.2131	-38.4439	34.0271
-37.2081	-35.6217	34.0857
-37.2029	-39.3271	34.1443
-37.1981	-39.60466	34.2029
-37.1925	-42.8447	34.2615
-37.1876	-41.1735	34.3201
-37.1838	-44.7354	34.3787
-37.179	-43.8642	34.4373
-37.1741	-46.2581	34.49585
-37.1681	-46.6545	34.5544
-37.1639	-45.7536	34.613
-37.1602	-44.2924	34.6716
-37.15387	-44.5313	34.7302
-37.1483	-43.01313	34.7888
-37.1444	-36.7582	34.8474
-37.139	-41.94	34.906
-37.13517	-37.3826	34.9646
-37.12867	-42.469	35.0232
-37.1245	-40.0214	35.0818
-37.1197	-42.584	35.1404
-37.1166	-47.3125	35.1892