File: data/processed_data_files/tensile/0.254_solid_uprint_typeiv_4545_r(1).dat
MTS793|BTW|ENU|1|2|.|/|:|1|0|0|A

Data Header:			0.254_solid_uprint_typeiv_4545_r0			Time:	20.0222	s	4/13/2019 6:41:55 PM
Data Acquisition:	Timed
Station Name:	ft40.cfg
Test File Name:	Type IV_Monotonic.tst
Displacement	Force	Running Time
mm	N	s
-40.0504	-184.793	0.0258789
-40.0497	-184.703	0.0942383
-40.0439	-172.68	0.162598
-40.0386	-158.186	0.230957
-40.03281	-151.969	0.299316
-40.0274	-143.314	0.367676
-40.0213	-137.739	0.436035
-40.0153	-141.432	0.504395
-40.0105	-140.088	0.572754
-40.0046	-144.2184	0.641113
-39.9987	-146.309	0.709473
-39.9925	-146.712	0.777832
-39.9881	-137.339	0.846191
-39.98122	-125.5295	0.914551
-39.9764	-117.918	0.98291
-39.9699	-107.103	1.05127
-39.9652	-99.7333	1.11963
-39.9584	-100.18	1.18799
-39.9535	-97.8001	1.25635
-39.9476	-100.333	1.324707
-39.9421	-104.7036	1.39307
-39.9372	-108.007	1.46143
-39.9306	-98.5575	1.52979
-39.9248	-93.9339	1.59814
-39.9181	-85.12941	1.6665
-39.9146	-73.0417	1.73486
-39.9063	-63.1181	1.80322
-39.9022	-57.5042	1.871582
-39.8965	-54.98217	1.93994
-39.8908	-55.6375	2.0083
-39.8854	-63.254	2.07666
-39.8799	-67.0357	2.14502
-39.8733	-61.3271	2.21338
-39.868	-59.4007	2.28174
-39.86269	-51.797	2.3501
-39.8567	-39.0174	2.418457
-39.8511	-30.0396	2.48682
-39.8453	-20.114	2.55518
-39.8393	-15.566	2.62354
-39.8328	-15.1123	2.69189
-39.8277	-18.9047	2.76025
-39.8225	-22.5441	2.82861
-39.8163	-21.0925	2.89697
-39.8106	-21.6332	2.965332
-39.8044	-17.0801	3.03369
-39.7995	-7.32345	3.10205
-39.79398	3.86815	3.17041
-39.7878	14.7008	3.23877
-39.7819	22.7208	3.30713
-39.7763	24.8504	3.37549
-39.7707	22.7185	3.44385
-39.76445	22.5573	3.512207
-39.7597	18.9327	3.58057
-39.7544	16.8434	3.64893
-39.7472	20.1802	3.71729
-39.7422	26.0294	3.78564
-39.7369	36.9031	3.854
-39.73069	48.4571	3.92236
-39.7251	58.1835	3.99072
-39.71899	61.3445	4.059082
-39.71402	65.048	4.12744
-39.7085	64.2655	4.1958
-39.704	60.2899	4.26416
-39.6965	57.7625	4.33252
-39.6908	58.9257	4.40088
-39.6845	59.8414	4.46924
-39.6795	69.1363	4.5376
-39.6736	80.2005	4.605957
-39.6677	90.6925	4.67432
-39.6632	96.729	4.74268
-39.657	102.389	4.81104
-39.6515	104.861	4.87939
-39.6459	102.731	4.94775
-39.6399	98.4637	5.01611
-39.6358	97.3463	5.08447
-39.6284	96.1438	5.152832
-39.6235	105.851	5.22119
-39.6158	114.488	5.28955
-39.6122	122.632	5.35791
-39.60574	130.377	5.42627
-39.6005	140.612	5.49463
-39.5943	145.848	5.56299
-39.5885	144.445	5.63135
-39.5823	143.687	5.699707
-39.5776	140.524	5.76807
-39.5722	134.627	5.83643
-39.5662	140.302	5.90479
-39.5604	147.876	5.97314
-39.5544	154.133	6.0415
-39.5499	161.974	6.10986
-39.5428	174.974	6.17822
-39.537	181.821	6.246582
-39.5318	183.805	6.31494
-39.5269	184.403	6.3833
-39.51931	182.332	6.45166
-39.515	177.689	6.52002
-39.5101	177.818	6.58838
-39.5036	181.838	6.65674
-39.4986	186.118	6.7251
-39.4921	193.953	6.793457
-39.4861	210.269	6.86182
-39.4802	218.403	6.93018
-39.475	219.605	6.99854
-39.469	223.708	7.06689
-39.4639	221.871	7.13525
-39.457	218.75	7.20361
-39.4518	218.056	7.27197
-39.4457	217.584	7.340332
-39.4415	218.811	7.40869
-39.4344	226.652	7.47705
-39.431	241.921	7.54541
-39.4234	248.197	7.61377
-39.4181	256.041	7.68213
-39.4112	261.986	7.75049
-39.4057	263.071	7.81885
-39.4001	260.99	7.887207
-39.3961	259.231	7.95557
-39.38966	255.18	8.02393
-39.3829	253.867	8.09229
-39.3781	261.008	8.16064
-39.3721	271.5	8.229
-39.3676	279.037	8.29736
-39.3603	287.812	8.36572
-39.356	296.371	8.434082
-39.349	299.195	8.50244
-39.3445	300.069	8.5708
-39.3374	298.4075	8.63916
-39.3336	292.379	8.70752
-39.3276	289.473	8.77588
-39.3206	294.357	8.84424
-39.3156	302.215	8.9126
-39.3095	309.196	8.980957
-39.3041	319.252	9.04932
-39.2971	327.0321	9.11768
-39.2921	334.256	9.18604
-39.2861	336.732	9.25439
-39.2813	334.151	9.32275
-39.2741	329.752	9.39111
-39.26989	326.469	9.45947
-39.2631	328.372	9.527832
-39.2587	330.708	9.59619
-39.25161	337.543	9.66455
-39.2471	347.304	9.73291
-39.24	356.102	9.80127
-39.2353	366.429	9.86963
-39.22945	371.504	9.93799
-39.225	370.705	10.0063
-39.2187	368.028	10.0747
-39.2115	364.161	10.1431
-39.2067	365.222	10.2114
-39.2007	363.826	10.2798
-39.1954	368.972	10.3481
-39.1906	376.687	10.4165
-39.1847	384.969	10.4849
-39.1782	396.348	10.5532
-39.1736	404.9707	10.6216
-39.1673	406.185	10.6899
-39.1622	401.558	10.7583
-39.1554	404.233	10.82666
-39.1504	400.988	10.89502
-39.1445	396.855	10.9634
-39.1381	399.862	11.0317
-39.1324	405.572	11.1001
-39.1272	413.962	11.1685
-39.1213	427.1301	11.2368
-39.1158	434.003	11.3052
-39.1102	437.54	11.3735
-39.1048	438.419	11.4419
-39.0978	441.891	11.5103
-39.0928	436.055	11.5786
-39.0877	432.727	11.647
-39.0816	433.74	11.7153
-39.0756	436.049	11.7837
-39.0705	441.701	11.8521
-39.0648	452.885	11.92041
-39.0589	463.434	11.98877
-39.0533	466.784	12.0571
-39.0466	471.415	12.1255
-39.0413	477.312	12.1938
-39.0361	472.7825	12.2622
-39.0295	468.422	12.3306
-39.0255	469.509	12.3989
-39.01886	467.138	12.4673
-39.0132	471.357	12.5356
-39.00808	476.2	12.604
-39.0014	486.051	12.6724
-38.9962	490.147	12.7407
-38.9912	497.5347	12.8091
-38.9845	507.43	12.8774
-38.9792	507.044	12.9458
-38.973	504.056	13.01416
-38.9685	502.534	13.08252
-38.96262	498.576	13.1509
-38.95686	498.459	13.2192
-38.9509	504.361	13.2876
-38.944	509.2045	13.356
-38.9389	514.398	13.4243
-38.9326	525.018	13.4927
-38.9268	533.747	13.561
-38.9218	536.334	13.6294
-38.91655	534.554	13.6978
-38.9102	534.478	13.7661
-38.90411	530.346	13.8345
-38.899	527.344	13.9028
-38.89423	528.563	13.9712
-38.8878	532.239	14.0396
-38.881	535.598	14.10791
-38.8767	549.028	14.17627
-38.8717	557.499	14.2446
-38.8646	560.488	14.313
-38.859	563.495	14.3813
-38.8536	563.07	14.4497
-38.8475	559.943	14.5181
-38.8432	554.839	14.5864
-38.8354	554.966	14.6548
-38.8315	553.98	14.7231
-38.8261	555.514	14.7915
-38.8192	566.55	14.8599
-38.8134	575.186	14.9282
-38.8089	579.841	14.9966
-38.80217	586.737	15.0649
-38.7964	587.71	15.1333
-38.7908	586.06	15.20166
-38.7853	580.843	15.27002
-38.7793	578.539	15.3384
-38.77409	574.1084	15.4067
-38.768	575.935	15.4751
-38.7633	582.574	15.5435
-38.757	589.375	15.6118
-38.7505	597.76	15.6802
-38.7458	602.495	15.7485
-38.7393	604.597	15.8169
-38.7342	605.201	15.8853
-38.7292	602.815	15.9536
-38.7218	595.965	16.022
-38.7163	589.35	16.0903
-38.7115	589.868	16.1587
-38.7054	593.837	16.2271
-38.6992	596.703	16.29541
-38.695	605.67	16.36377
-38.6887	612.318	16.4321
-38.68177	616.043	16.5005
-38.6764	617.952	16.5688
-38.6718	615.711	16.6372
-38.6656	608.4776	16.7056
-38.6594	600.812	16.7739
-38.6543	599.899	16.8423
-38.649	599.4	16.9106
-38.6426	600.888	16.979
-38.6369	607.721	17.0474
-38.6314	615.784	17.1157
-38.6249	617.536	17.1841
-38.6204	623.7442	17.2524
-38.615	621.221	17.3208
-38.6089	612.713	17.38916
-38.6036	606.087	17.45752
-38.5965	602.84	17.5259
-38.5908	598.992	17.5942
-38.5849	598.416	17.6626
-38.58065	603.1662	17.731
-38.5738	610.497	17.7993
-38.56855	615.299	17.8677
-38.563	619.5564	17.936
-38.5564	620.663	18.0044
-38.5522	612.824	18.0728
-38.5453	606.272	18.1411
-38.5386	605.078	18.2095
-38.5344	597.992	18.2778
-38.5281	594.474	18.3462
-38.5238	596.32	18.4146
-38.5175	601.566	18.48291
-38.5121	605.517	18.55127
-38.506	612.869	18.6196
-38.5007	614.374	18.688
-38.4945	609.294	18.7563
-38.4892	606.634	18.8247
-38.4835	603.841	18.8931
-38.476	597.103	18.9614
-38.4718	589.237	19.0298
-38.4658	591.075	19.0981
-38.4611	592.121	19.1665
-38.45472	596.029	19.2349
-38.4493	605.394	19.3032
-38.4428	608.236	19.3716
-38.4367	606.674	19.4399
-38.4315	605.1391	19.5083
-38.42786	602.842	19.57666
-38.421	593.233	19.64502
-38.4142	587.447	19.7134
-38.409	584.804	19.7817
-38.4048	585.014	19.8501
-38.3976	588.708	19.9185
-38.3915	595.092	19.9868
-38.3886	593.864	20.0161

Data Header:			0.254_solid_uprint_typeiv_4545_r0			Time:	34.2524	s	4/13/2019 6:42:09 PM
Data Acquisition:	Timed
Station Name:	ft40.cfg
Test File Name:	Type IV_Monotonic.tst
Displacement	Force	Running Time
mm	N	s
-38.3882	587.226	20.0259
-38.38446	598.951	20.0747
-38.381	600.6532	20.1235
-38.37582	587.4566	20.1724
-38.3723	581.635	20.2212
-38.36702	591.628	20.27002
-38.3641	603.13	20.3188
-38.3597	598.231	20.3677
-38.3557	581.8949	20.4165
-38.3527	582.304	20.4653
-38.3479	595.375	20.51416
-38.3439	599.808	20.563
-38.3401	588.532	20.6118
-38.3355	579.839	20.6606
-38.3321	589.166	20.7095
-38.3269	599.052	20.7583
-38.3235	594.325	20.8071
-38.3195	580.283	20.856
-38.315	576.886	20.9048
-38.3122	591.727	20.9536
-38.3084	598.989	21.0024
-38.3043	588.428	21.05127
-38.2995	576.629	21.1001
-38.2955	580.348	21.1489
-38.2911	594.426	21.1978
-38.2868	594.776	21.2466
-38.2833	580.742	21.29541
-38.2791	576.022	21.3442
-38.27507	586.76	21.3931
-38.2697	595.963	21.4419
-38.2658	587.347	21.4907
-38.2621	571.768	21.5396
-38.2585	576.9043	21.5884
-38.2546	592.075	21.6372
-38.2501	593.255	21.686
-38.2463	581.3	21.7349
-38.2423	572.115	21.7837
-38.2386	580.888	21.83252
-38.2345	592.686	21.8813
-38.2296	588.34	21.9302
-38.2261	573.589	21.979
-38.2214	571.742	22.0278
-38.218	588.622	22.07666
-38.2134	595.586	22.1255
-38.2095	580.825	22.1743
-38.2056	568.234	22.2231
-38.2001	574.364	22.272
-38.1964	590.721	22.3208
-38.1939	591.606	22.3696
-38.1885	574.767	22.4185
-38.186	570.5462	22.4673
-38.1807	581.2157	22.5161
-38.1764	590.8136	22.5649
-38.1718	582.392	22.61377
-38.1691	570.099	22.6626
-38.1653	573.712	22.7114
-38.1603	587.852	22.7603
-38.1565	588.6087	22.8091
-38.1516	575.175	22.85791
-38.1481	566.55	22.9067
-38.1449	576.182	22.9556
-38.1401	589.205	23.0044
-38.1364	582.266	23.0532
-38.1316	568.885	23.1021
-38.1281	570.898	23.1509
-38.1236	584.033	23.1997
-38.1207	585.893	23.2485
-38.1157	574.578	23.2974
-38.1117	566.496	23.3462
-38.1079	574.244	23.39502
-38.1033	585.448	23.4438
-38.1008	582.637	23.4927
-38.0952	569.326	23.5415
-38.0921	567.504	23.5903
-38.0893	577.756	23.63916
-38.0838	584.31	23.688
-38.079	575.067	23.7368
-38.0745	565.604	23.7856
-38.0707	573.074	23.8345
-38.0674	584.634	23.8833
-38.0632	579.07	23.9321
-38.058	568.699	23.981
-38.05616	565.699	24.0298
-38.05175	577.683	24.0786
-38.0473	581.882	24.1274
-38.0435	575.584	24.17627
-38.03957	566.348	24.2251
-38.034	569.3374	24.2739
-38.0307	579.527	24.3228
-38.0257	578.602	24.3716
-38.0222	568.135	24.42041
-38.0191	562.999	24.4692
-38.0143	573.338	24.5181
-38.011	583.833	24.5669
-38.0063	575.3324	24.6157
-38.0025	563.053	24.6646
-37.9979	565.426	24.7134
-37.9939	578.538	24.7622
-37.9908	581.446	24.811
-37.9857	570.202	24.8599
-37.9821	561.849	24.9087
-37.9766	571.992	24.95752
-37.9724	580.41	25.0063
-37.9708	575.148	25.0552
-37.9649	564.182	25.104
-37.9617	563.594	25.1528
-37.957	577.242	25.20166
-37.9535	582.644	25.2505
-37.949	569.725	25.2993
-37.9445	558.313	25.3481
-37.9414	566.686	25.397
-37.9367	580.179	25.4458
-37.9322	576.419	25.4946
-37.9285	562.058	25.5435
-37.9248	559.5661	25.5923
-37.9191	574.11	25.6411
-37.9171	578.605	25.6899
-37.9124	569.468	25.73877
-37.908	557.576	25.7876
-37.9044	564.337	25.8364
-37.9001	577.624	25.8853
-37.8962	578.321	25.9341
-37.8919	565.365	25.98291
-37.8888	558.699	26.0317
-37.8846	567.966	26.0806
-37.8809	579.8	26.1294
-37.8749	571.4613	26.1782
-37.87122	557.35	26.2271
-37.867	560.965	26.2759
-37.8641	576.144	26.3247
-37.8588	579.741	26.3735
-37.855	563.904	26.4224
-37.8513	554.496	26.4712
-37.8468	565.386	26.52002
-37.844	578.165	26.5688
-37.8395	574.548	26.6177
-37.8355	559.815	26.6665
-37.8312	559.123	26.7153
-37.82645	569.769	26.76416
-37.8226	577.9364	26.813
-37.8193	566.457	26.8618
-37.8153	554.813	26.9106
-37.81	562.07	26.9595
-37.8064	576.1394	27.0083
-37.803	574.594	27.0571
-37.7974	559.03	27.106
-37.7939	553.503	27.1548
-37.7899	566.621	27.2036
-37.7856	576.301	27.2524
-37.78159	568.736	27.30127
-37.77795	556.768	27.3501
-37.7747	559.389	27.3989
-37.7699	572.43	27.4478
-37.7652	574.134	27.4966
-37.7619	560.7132	27.54541
-37.7582	553.5415	27.5942
-37.7536	563.1767	27.6431
-37.7492	574.541	27.6919
-37.74604	570.156	27.7407
-37.7418	556.112	27.7896
-37.7372	554.785	27.8384
-37.7334	567.245	27.8872
-37.7294	573.741	27.936
-37.7253	561.905	27.9849
-37.7221	554.316	28.0337
-37.7186	562.094	28.08252
-37.712	572.541	28.1313
-37.7092	567.951	28.1802
-37.7058	555.422	28.229
-37.7017	553.852	28.2778
-37.6965	565.816	28.32666
-37.6928	572.108	28.3755
-37.6884	563.293	28.4243
-37.6857	553.3595	28.4731
-37.6796	556.646	28.522
-37.6762	568.581	28.5708
-37.6729	568.269	28.6196
-37.6689	556.567	28.6685
-37.6637	552.137	28.7173
-37.6614	564.655	28.7661
-37.6564	572.266	28.8149
-37.652	562.378	28.86377
-37.648	552.665	28.9126
-37.6432	557.1908	28.9614
-37.6388	568.179	29.0103
-37.6355	568.538	29.0591
-37.6322	556.448	29.10791
-37.6284	551.906	29.1567
-37.623	561.134	29.2056
-37.6199	569.528	29.2544
-37.61607	564.4826	29.3032
-37.6113	553.3631	29.3521
-37.6074	554.993	29.4009
-37.6033	568.563	29.4497
-37.5988	571.845	29.4985
-37.5955	556.93	29.5474
-37.5905	548.753	29.5962
-37.5885	559.273	29.64502
-37.58345	570.178	29.6938
-37.5795	563.948	29.7427
-37.5742	550.785	29.7915
-37.5711	551.947	29.8403
-37.5664	564.968	29.88916
-37.56258	567.546	29.938
-37.5579	556.344	29.9868
-37.5549	549.224	30.0356
-37.5507	556.545	30.0845
-37.545	568.331	30.1333
-37.542	566.262	30.1821
-37.5393	551.903	30.231
-37.5344	546.399	30.2798
-37.5303	560.2016	30.3286
-37.52607	566.959	30.3774
-37.5215	559.699	30.42627
-37.518	545.462	30.4751
-37.513	552.886	30.5239
-37.5081	565.921	30.5728
-37.50642	565.91	30.6216
-37.5022	550.222	30.67041
-37.4977	544.689	30.7192
-37.49308	558.097	30.7681
-37.489	567.91	30.8169
-37.4857	562.261	30.8657
-37.4807	548.23	30.9146
-37.4763	548.349	30.9634
-37.4742	561.442	31.0122
-37.46899	566.228	31.061
-37.4659	552.182	31.1099
-37.4601	545.386	31.1587
-37.4572	553.411	31.20752
-37.4531	567.675	31.2563
-37.4486	561.727	31.3052
-37.4446	545.58	31.354
-37.4402	544.323	31.4028
-37.4364	558.563	31.45166
-37.4325	566.535	31.5005
-37.4285	554.607	31.5493
-37.4248	543.485	31.5981
-37.4203	548.112	31.647
-37.4157	561.207	31.6958
-37.4119	561.815	31.7446
-37.4072	546.529	31.7935
-37.4041	541.775	31.8423
-37.3999	554.386	31.8911
-37.3958	562.163	31.9399
-37.39119	553.793	31.98877
-37.3869	539.725	32.0376
-37.3841	542.039	32.0864
-37.3794	557.922	32.1353
-37.3757	558.665	32.1841
-37.3711	546.7793	32.23291
-37.3679	539.667	32.2817
-37.3623	548.819	32.3306
-37.3583	556.058	32.3794
-37.3553	551.2876	32.4282
-37.35231	537.384	32.4771
-37.3469	538.42	32.5259
-37.3427	549.677	32.5747
-37.3398	554.422	32.6235
-37.3346	543.0694	32.6724
-37.3306	530.282	32.7212
-37.32864	536.268	32.77002
-37.3221	544.138	32.8188
-37.3184	538.423	32.8677
-37.3119	-68.8339	32.9165
-37.3089	-48.9827	32.9653
-37.3053	-37.19878	33.01416
-37.3014	-31.5542	33.063
-37.2981	-42.1525	33.1118
-37.2925	-50.6855	33.1606
-37.2897	-48.5639	33.2095
-37.2847	-36.0328	33.2583
-37.2812	-33.6335	33.3071
-37.27702	-43.7269	33.356
-37.2731	-51.2439	33.4048
-37.2698	-42.9671	33.4536
-37.2657	-33.5248	33.5024
-37.2623	-37.3959	33.55127
-37.2578	-48.8078	33.6001
-37.2528	-46.9379	33.6489
-37.24987	-35.44252	33.6978
-37.24641	-33.794	33.7466
-37.2409	-45.2014	33.79541
-37.2372	-51.3601	33.8442
-37.2323	-45.4548	33.8931
-37.2291	-34.5959	33.9419
-37.2244	-36.4795	33.9907
-37.2214	-47.9609	34.0396
-37.2165	-49.547	34.0884
-37.212	-38.35	34.1372
-37.2085	-34.2063	34.186
-37.2026	-42.7654	34.2349
-37.20335	-34.2112	34.2446