File: data/processed_data_files/tensile/0.254_hd_uprint_typeiv_090_r(5).dat
MTS793|BTW|ENU|1|2|.|/|:|1|0|0|A

Data Header:			0.254_hd_uprint_typeiv_090_r0			Time:	20.0183	s	4/13/2019 11:06:35 PM
Data Acquisition:	Timed
Station Name:	ft40.cfg
Test File Name:	monotonic_0.2540_typeiv_solid_4545_uprint.tst
Displacement	Force	Running Time
mm	N	s
-40.0435	-216.333	0.0227051
-40.0424	-219.517	0.0910645
-40.0354	-212.076	0.159424
-40.0303	-206.163	0.2277832
-40.0257	-205.778	0.296143
-40.0186	-203.823	0.364502
-40.014	-199.165	0.432861
-40.0074	-201.067	0.5012207
-40.0025	-197.832	0.56958
-39.9963	-192.047	0.637939
-39.9909	-188.334	0.706299
-39.9857	-187.869	0.7746582
-39.9795	-178.657	0.843018
-39.9736	-174.709	0.911377
-39.9694	-173.328	0.979736
-39.96273	-169.545	1.0481
-39.9568	-167.211	1.11646
-39.951	-164.068	1.18481
-39.9456	-164.119	1.25317
-39.94	-158.1235	1.32153
-39.9338	-161.419	1.38989
-39.92794	-157.205	1.458252
-39.923	-146.967	1.52661
-39.9163	-143.054	1.59497
-39.9117	-139.755	1.66333
-39.9056	-135.774	1.73169
-39.8998	-132.979	1.80005
-39.895	-133.209	1.86841
-39.8891	-130.148	1.93677
-39.8817	-128.814	2.005127
-39.8771	-128.784	2.07349
-39.8706	-125.194	2.14185
-39.8652	-114.9989	2.21021
-39.8588	-110.601	2.27856
-39.8549	-107.212	2.34692
-39.8483	-103.418	2.41528
-39.8438	-99.508	2.48364
-39.8379	-97.5266	2.552002
-39.8312	-97.1472	2.62036
-39.8264	-96.2136	2.68872
-39.8209	-96.1886	2.75708
-39.8148	-90.4479	2.82544
-39.8084	-83.6159	2.8938
-39.8035	-80.35276	2.96216
-39.7972	-75.7515	3.03052
-39.793	-70.1252	3.098877
-39.7861	-67.2298	3.16724
-39.7806	-63.8539	3.2356
-39.7749	-64.351	3.30396
-39.7694	-64.2632	3.37231
-39.7624	-62.1755	3.44067
-39.7569	-58.2585	3.50903
-39.7511	-54.5744	3.57739
-39.7453	-51.111	3.645752
-39.7398	-44.0086	3.71411
-39.7352	-38.9742	3.78247
-39.7295	-35.0576	3.85083
-39.7238	-31.9222	3.91919
-39.7178	-30.3655	3.98755
-39.712	-31.0537	4.05591
-39.7057	-30.9806	4.12427
-39.7009	-25.0987	4.192627
-39.6944	-22.35305	4.26099
-39.6891	-18.3008	4.32935
-39.6833	-12.9639	4.39771
-39.6773	-8.96957	4.46606
-39.6726	-3.14746	4.53442
-39.6667	2.36491	4.60278
-39.6607	3.10636	4.67114
-39.6552	1.8359	4.739502
-39.6488	4.32094	4.80786
-39.6435	8.021492	4.87622
-39.6368	8.08148	4.94458
-39.6316	12.3669	5.01294
-39.6259	18.77	5.0813
-39.6209	21.4844	5.14966
-39.61536	28.4787	5.21802
-39.6097	33.80761	5.286377
-39.6042	32.531	5.35474
-39.5984	34.7218	5.4231
-39.5922	38.3395	5.49146
-39.5855	40.7556	5.55981
-39.58131	39.3489	5.62817
-39.5742	45.3008	5.69653
-39.569	49.5752	5.76489
-39.5634	53.9427	5.833252
-39.5582	58.79324	5.90161
-39.5528	65.3977	5.96997
-39.5469	64.147	6.03833
-39.5407	67.0749	6.10669
-39.5368	74.0584	6.17505
-39.5308	74.4552	6.24341
-39.5246	73.3144	6.31177
-39.5179	78.0086	6.380127
-39.5117	80.3013	6.44849
-39.507	83.1442	6.51685
-39.5009	90.0697	6.58521
-39.49659	95.875	6.65356
-39.4886	96.3982	6.72192
-39.4837	99.0587	6.79028
-39.4784	107.659	6.85864
-39.4725	107.637	6.927002
-39.4662	106.282	6.99536
-39.4618	111.285	7.06372
-39.4548	111.787	7.13208
-39.4488	115.834	7.20044
-39.4445	121.178	7.2688
-39.4384	126.937	7.33716
-39.4328	125.49	7.40552
-39.4262	130.544	7.473877
-39.4205	138.032	7.54224
-39.41539	137.959	7.6106
-39.4099	139.661	7.67896
-39.4049	142.9	7.74731
-39.39994	143.764	7.81567
-39.3935	145.414	7.88403
-39.3873	151.061	7.95239
-39.3817	153.345	8.020752
-39.3763	155.825	8.08911
-39.3704	163.842	8.15747
-39.3644	168.527	8.22583
-39.3579	169.404	8.29419
-39.3529	172.456	8.36255
-39.3461	172.982	8.43091
-39.3424	175.506	8.49927
-39.3362	175.422	8.567627
-39.3301	180.036	8.63599
-39.3243	180.484	8.70435
-39.3191	184.349	8.77271
-39.31316	194.451	8.84106
-39.3077	197.784	8.90942
-39.3018	200.292	8.97778
-39.2956	204.065	9.04614
-39.29018	205.5764	9.114502
-39.2853	207.7625	9.18286
-39.27948	206.469	9.25122
-39.2736	208.705	9.31958
-39.2676	209.395	9.38794
-39.2627	213.993	9.4563
-39.2563	223.735	9.52466
-39.24984	225.106	9.59302
-39.2451	229.043	9.661377
-39.2383	232.784	9.72974
-39.2332	235.567	9.7981
-39.2281	237.08	9.86646
-39.2218	238.058	9.93481
-39.2163	236.5901	10.0032
-39.2107	238.253	10.0715
-39.2045	244.081	10.1399
-39.2006	249.787	10.2083
-39.1929	254.309	10.2766
-39.18726	259.485	10.345
-39.1831	261.382	10.41333
-39.1761	264.286	10.4817
-39.1712	268.562	10.55
-39.1651	266.86	10.6184
-39.15926	266.46	10.6868
-39.1538	267.797	10.7551
-39.1485	273.872	10.8235
-39.1433	276.171	10.8918
-39.1354	281.807	10.9602
-39.1321	286.567	11.0286
-39.1246	289.865	11.0969
-39.12	294.394	11.1653
-39.113	299.0946	11.2336
-39.1079	295.473	11.302
-39.1028	295.885	11.3704
-39.0978	296.97	11.4387
-39.092	301.9248	11.50708
-39.086	304.071	11.5754
-39.08	308.323	11.6438
-39.0738	313.122	11.7122
-39.0675	315.611	11.7805
-39.0621	322.481	11.8489
-39.0568	326.044	11.9172
-39.0515	323.527	11.9856
-39.0468	321.3569	12.054
-39.04026	325.481	12.1223
-39.0343	327.512	12.1907
-39.0284	327.1431	12.259
-39.0225	331.9693	12.3274
-39.0161	336.117	12.3958
-39.0116	339.902	12.4641
-39.0069	345.5376	12.5325
-39	348.155	12.60083
-38.9936	347.061	12.6692
-38.9881	348.037	12.7375
-38.9824	352.633	12.8059
-38.9778	351.717	12.8743
-38.9711	352.228	12.9426
-38.9661	356.569	13.011
-38.9599	357.614	13.0793
-38.9544	362.233	13.1477
-38.94915	367.177	13.2161
-38.9431	371.023	13.2844
-38.938	369.186	13.3528
-38.9304	371.929	13.4211
-38.9245	376.8446	13.4895
-38.9199	375.41	13.5579
-38.91407	374.751	13.6262
-38.9088	377.199	13.69458
-38.90202	378.673	13.7629
-38.8973	382.698	13.8313
-38.892	387.5528	13.8997
-38.8868	388.786	13.968
-38.8799	389.14	14.0364
-38.8752	396.524	14.1047
-38.8685	397.638	14.1731
-38.8634	394.82	14.2415
-38.8584	394.468	14.3098
-38.8513	397.822	14.3782
-38.8465	395.785	14.4465
-38.8404	399.408	14.5149
-38.8342	404.468	14.5833
-38.8289	404.4053	14.6516
-38.8236	405.624	14.72
-38.8172	414.922	14.78833
-38.8123	412.647	14.8567
-38.807	411.352	14.925
-38.7998	411.441	14.9934
-38.7967	411.583	15.0618
-38.7889	411.118	15.1301
-38.7831	413.374	15.1985
-38.7782	416.511	15.2668
-38.7719	417.264	15.3352
-38.7662	416.544	15.4036
-38.7611	425.0137	15.4719
-38.75491	426.377	15.5403
-38.7501	424.279	15.6086
-38.7421	425.648	15.677
-38.738	424.525	15.7454
-38.7325	422.616	15.8137
-38.7272	422.97	15.88208
-38.72113	422.142	15.9504
-38.7144	422.231	16.0188
-38.7094	426.413	16.0872
-38.7039	430.751	16.1555
-38.6977	431.374	16.2239
-38.6924	432.15	16.2922
-38.6866	433.429	16.3606
-38.6813	430.723	16.429
-38.6756	430.852	16.4973
-38.6701	428.54	16.5657
-38.6637	426.496	16.634
-38.6589	427.031	16.7024
-38.6522	429.9057	16.7708
-38.6467	432.624	16.8391
-38.641	434.867	16.9075
-38.636	436.397	16.97583
-38.6287	434.262	17.0442
-38.6237	436.947	17.1125
-38.6187	434.674	17.1809
-38.6108	431.161	17.2493
-38.6079	427.691	17.3176
-38.6009	427.8638	17.386
-38.5964	430.58	17.4543
-38.5904	431.497	17.5227
-38.5839	435.213	17.5911
-38.5787	437.3349	17.6594
-38.5727	435.284	17.7278
-38.567	437.509	17.7961
-38.5628	435.974	17.8645
-38.5559	430.757	17.9329
-38.5505	426.524	18.0012
-38.54472	428.267	18.06958
-38.539	428.768	18.1379
-38.5328	428.855	18.2063
-38.5279	431.78	18.2747
-38.5207	433.824	18.343
-38.5173	433.733	18.4114
-38.5097	436.134	18.4797
-38.5045	433.325	18.5481
-38.49892	428.709	18.6165
-38.4927	425.137	18.6848
-38.4874	426.56	18.7532
-38.4813	424.043	18.8215
-38.4757	424.506	18.8899
-38.4704	428.142	18.9583
-38.4649	428.57	19.0266
-38.4594	431.039	19.095
-38.4534	432.922	19.16333
-38.4471	429.5239	19.2317
-38.4423	424.784	19.3
-38.4358	423.125	19.3684
-38.43	425.8461	19.4368
-38.424	421.568	19.5051
-38.4195	420.816	19.5735
-38.4138	423.926	19.6418
-38.4079	422.753	19.7102
-38.4025	424.879	19.7786
-38.3958	428.834	19.8469
-38.391	428.225	19.9153
-38.3849	423.218	19.9836
-38.38287	420.241	20.0129

Data Header:			0.254_hd_uprint_typeiv_090_r0			Time:	32.2991	s	4/13/2019 11:06:48 PM
Data Acquisition:	Timed
Station Name:	ft40.cfg
Test File Name:	monotonic_0.2540_typeiv_solid_4545_uprint.tst
Displacement	Force	Running Time
mm	N	s
-38.3811	422.728	20.0227
-38.3771	419.408	20.0715
-38.3735	424.453	20.1204
-38.3693	427.254	20.1692
-38.3653	423.239	20.218
-38.3623	415.453	20.2668
-38.3581	417.54	20.3157
-38.353	422.669	20.3645
-38.3487	426.171	20.41333
-38.34515	421.341	20.4622
-38.3412	418.1658	20.511
-38.3361	420.2	20.5598
-38.3339	425.554	20.6086
-38.3287	425.254	20.6575
-38.3243	417.756	20.7063
-38.3204	418.678	20.7551
-38.316	423.53	20.804
-38.312	426.4205	20.8528
-38.3079	420.326	20.9016
-38.3035	413.948	20.9504
-38.3004	415.51	20.9993
-38.2963	420.68	21.0481
-38.2922	424.547	21.0969
-38.2881	419.296	21.1458
-38.2838	416.409	21.19458
-38.28	419.41	21.2434
-38.2765	423.875	21.2922
-38.2723	422.178	21.3411
-38.26725	417.148	21.3899
-38.2642	415.5015	21.4387
-38.26	421.417	21.4875
-38.2547	422.886	21.5364
-38.2513	418.062	21.5852
-38.2474	412.6011	21.634
-38.2433	415.244	21.6829
-38.23914	419.523	21.7317
-38.23497	419.621	21.7805
-38.2314	416.799	21.8293
-38.2268	415.816	21.8782
-38.223	419.889	21.927
-38.2184	421.426	21.97583
-38.2139	418.567	22.0247
-38.2112	412.883	22.0735
-38.2066	415.577	22.1223
-38.2023	421.149	22.1711
-38.1982	422.3121	22.22
-38.1951	416.454	22.2688
-38.1892	410.861	22.3176
-38.1862	415.8519	22.3665
-38.1813	416.505	22.4153
-38.1785	416.769	22.4641
-38.1745	414.78	22.5129
-38.17004	416.212	22.5618
-38.1658	420.4921	22.6106
-38.1607	419.794	22.6594
-38.1574	415.751	22.7083
-38.1544	413.752	22.75708
-38.1495	417.442	22.8059
-38.1456	420.002	22.8547
-38.1423	418.663	22.9036
-38.1373	414.058	22.9524
-38.1339	413.554	23.0012
-38.1285	416.133	23.05
-38.1256	414.765	23.0989
-38.1222	413.708	23.1477
-38.1171	412.113	23.1965
-38.1124	416.114	23.2454
-38.1088	420.074	23.2942
-38.1055	418.56	23.343
-38.1002	412.464	23.3918
-38.0977	412.968	23.4407
-38.0929	418.163	23.4895
-38.0898	419.766	23.53833
-38.0849	415.585	23.5872
-38.0811	413.017	23.636
-38.0766	413.902	23.6848
-38.0725	415.436	23.7336
-38.0682	414.001	23.7825
-38.0647	409.796	23.8313
-38.0605	411.604	23.8801
-38.0562	417.745	23.929
-38.0514	421.463	23.9778
-38.0473	417.645	24.0266
-38.0437	412.2	24.0754
-38.0393	414.048	24.1243
-38.0352	419.674	24.1731
-38.0313	418.276	24.2219
-38.02792	412.5	24.2708
-38.0238	410.183	24.31958
-38.0196	414.625	24.3684
-38.0156	417.128	24.4172
-38.0113	412.739	24.4661
-38.00724	408.3201	24.5149
-38.0034	410.383	24.5637
-37.9997	416.785	24.6125
-37.9946	418.14	24.6614
-37.99078	414.931	24.7102
-37.9868	412.4328	24.759
-37.9833	413.6796	24.8079
-37.9793	420.298	24.8567
-37.9746	417.673	24.9055
-37.9713	412.024	24.9543
-37.966	410.629	25.0032
-37.9619	417.06	25.052
-37.9582	419.654	25.10083
-37.9538	411.076	25.1497
-37.9505	406.735	25.1985
-37.9458	410.183	25.2473
-37.9416	417.548	25.2961
-37.9384	417.766	25.345
-37.9335	412.621	25.3938
-37.9298	410.274	25.4426
-37.9265	415.7189	25.4915
-37.9215	419.094	25.5403
-37.9172	415.535	25.5891
-37.9144	409.285	25.6379
-37.9096	411.961	25.6868
-37.9056	415.691	25.7356
-37.9015	417.548	25.7844
-37.8959	411.026	25.8333
-37.89513	405.214	25.88208
-37.8895	408.56	25.9309
-37.8846	415.062	25.9797
-37.8809	416.41	26.0286
-37.8772	412.642	26.0774
-37.87273	412.762	26.1262
-37.8684	415.714	26.175
-37.8645	416.644	26.2239
-37.86108	414.006	26.2727
-37.8562	410.89	26.3215
-37.8532	410.723	26.3704
-37.8499	416.885	26.4192
-37.8446	415.174	26.468
-37.8407	410.633	26.5168
-37.8351	406.772	26.5657
-37.8328	411.398	26.6145
-37.82819	414.325	26.66333
-37.8244	414.221	26.7122
-37.82003	410.194	26.761
-37.8163	412.786	26.8098
-37.8113	416.743	26.8586
-37.8074	415.426	26.9075
-37.8044	412.154	26.9563
-37.799	410.177	27.0051
-37.7955	412.358	27.054
-37.792	414.74	27.1028
-37.7876	412.137	27.1516
-37.78381	409.659	27.2004
-37.7793	408.427	27.2493
-37.7763	410.772	27.2981
-37.7711	411.715	27.3469
-37.76664	410.997	27.3958
-37.7627	411.082	27.44458
-37.7591	414.848	27.4934
-37.754	417.229	27.5422
-37.7508	413.744	27.5911
-37.7473	408.486	27.6399
-37.7428	409.284	27.6887
-37.739	414.662	27.7375
-37.7338	412.131	27.7864
-37.7308	410.152	27.8352
-37.7258	408.813	27.884
-37.7229	410.665	27.9329
-37.7191	411.674	27.9817
-37.71381	411.08	28.0305
-37.7097	406.523	28.0793
-37.7062	409.981	28.1282
-37.7033	415.988	28.177
-37.6985	415.3576	28.22583
-37.6935	412.442	28.2747
-37.6896	407.425	28.3235
-37.6859	411.604	28.3723
-37.6809	414.297	28.4211
-37.6782	412.3483	28.47
-37.6737	407.345	28.5188
-37.6697	406.62	28.5676
-37.6657	411.956	28.6165
-37.6618	412.004	28.6653
-37.6573	406.704	28.7141
-37.6528	403.723	28.7629
-37.6487	407.564	28.8118
-37.6448	415.363	28.8606
-37.6403	414.898	28.9094
-37.6377	409.299	28.9583
-37.6327	406.647	29.00708
-37.63	409.494	29.0559
-37.6247	414.357	29.1047
-37.6206	410.552	29.1536
-37.6159	404.403	29.2024
-37.6128	405.728	29.2512
-37.608	411.304	29.3
-37.604	410.362	29.3489
-37.60117	404.9343	29.3977
-37.5977	400.163	29.4465
-37.5915	406.8356	29.4954
-37.5885	413.198	29.5442
-37.5839	412.178	29.593
-37.5802	407.136	29.6418
-37.5753	405.864	29.6907
-37.571	408.665	29.7395
-37.5678	411.677	29.78833
-37.5624	407.1037	29.8372
-37.5592	401.896	29.886
-37.5558	404.131	29.9348
-37.5516	408.517	29.9836
-37.5482	410.173	30.0325
-37.5426	404.383	30.0813
-37.5392	400.47	30.1301
-37.5357	404.538	30.179
-37.53159	410.918	30.2278
-37.5267	408.229	30.2766
-37.5224	404.12	30.3254
-37.519	402.663	30.3743
-37.5146	407.082	30.4231
-37.5119	407.452	30.4719
-37.506	404.214	30.5208
-37.5021	400.195	30.56958
-37.4983	403.899	30.6184
-37.4937	406.724	30.6672
-37.49094	405.496	30.7161
-37.486	399.542	30.7649
-37.4829	396.206	30.8137
-37.4785	395.989	30.8625
-37.4715	-33.6178	30.9114
-37.46909	-41.3927	30.9602
-37.4662	-43.6611	31.009
-37.4617	-41.34	31.0579
-37.4561	-38.9809	31.1067
-37.4528	-41.9299	31.1555
-37.44981	-45.4238	31.2043
-37.4459	-46.1175	31.2532
-37.4416	-43.0222	31.302
-37.4375	-39.7998	31.35083
-37.4329	-40.71339	31.3997
-37.4294	-44.1993	31.4485
-37.4243	-46.2083	31.4973
-37.4218	-42.4931	31.5461
-37.417	-42.9266	31.595
-37.4131	-46.3277	31.6438
-37.4093	-45.008	31.6926
-37.40398	-41.2778	31.7415
-37.4014	-39.4445	31.7903
-37.3968	-41.1866	31.8391
-37.393	-46.2403	31.8879
-37.3869	-45.7777	31.9368
-37.3847	-41.2166	31.9856
-37.3798	-39.2392	32.0344
-37.3752	-45.3005	32.0833
-37.3721	-44.7667	32.13208
-37.3678	-40.8018	32.1809
-37.364	-39.7837	32.2297
-37.3599	-45.2064	32.2786
-37.3591	-40.3633	32.28833