File: data/processed_data_files/tensile/0.254_solid_dimension_typeiv_090_r(1).dat
MTS793|BTW|ENU|1|2|.|/|:|1|0|0|A

Data Header:			0.254_solid_uprint_typeiv_090_r0			Time:	20.0173	s	4/14/2019 1:33:05 AM
Data Acquisition:	Timed
Station Name:	ft40.cfg
Test File Name:	monotonic_0.2540_typeiv_solid_090_uprint.tst
Displacement	Force	Running Time
mm	N	s
-40.042	-242.7818	0.0224609
-40.0392	-240.452	0.0908203
-40.03339	-235.618	0.15918
-40.0285	-233.208	0.227539
-40.0223	-227.186	0.295898
-40.0164	-220.492	0.364258
-40.01152	-220.205	0.432617
-40.00576	-213.284	0.500977
-39.9993	-210.479	0.569336
-39.9937	-211.687	0.637695
-39.988	-212.174	0.706055
-39.9837	-207.465	0.774414
-39.9767	-201.801	0.842773
-39.9712	-199.401	0.911133
-39.96608	-194.762	0.979492
-39.9594	-185.602	1.04785
-39.953	-185.441	1.11621
-39.9485	-180.085	1.18457
-39.9436	-177.558	1.25293
-39.9374	-175.211	1.32129
-39.9313	-178.0074	1.38965
-39.9253	-173.976	1.45801
-39.92	-167.93	1.52637
-39.9143	-166.922	1.59473
-39.9087	-162.49	1.66309
-39.9026	-156.556	1.73145
-39.8987	-150.678	1.7998
-39.8916	-146.9529	1.86816
-39.8864	-141.447	1.93652
-39.88028	-138.883	2.00488
-39.87553	-139.746	2.07324
-39.8686	-140.2773	2.1416
-39.8637	-132.239	2.20996
-39.8582	-132.612	2.27832
-39.8515	-126.945	2.34668
-39.8466	-120.624	2.41504
-39.8414	-117.7202	2.4834
-39.8341	-111.435	2.55176
-39.8286	-107.521	2.62012
-39.82312	-101.393	2.68848
-39.8179	-103.3259	2.75684
-39.8118	-103.604	2.8252
-39.8065	-97.4505	2.89355
-39.8001	-96.5689	2.96191
-39.7946	-93.7427	3.03027
-39.7899	-89.0498	3.09863
-39.784	-84.3322	3.16699
-39.779	-77.8272	3.23535
-39.772	-72.4131	3.30371
-39.7666	-68.1893	3.37207
-39.7598	-66.8079	3.44043
-39.7554	-64.3021	3.50879
-39.7501	-60.6657	3.57715
-39.7431	-60.5676	3.64551
-39.7387	-57.1857	3.71387
-39.7326	-53.5677	3.78223
-39.7276	-49.7176	3.85059
-39.7207	-41.8648	3.91895
-39.7156	-38.5697	3.9873
-39.7098	-35.84964	4.05566
-39.7044	-32.9541	4.12402
-39.6983	-29.3604	4.19238
-39.6925	-25.1486	4.26074
-39.6872	-25.659	4.3291
-39.6817	-23.9785	4.39746
-39.6755	-19.2219	4.46582
-39.6683	-16.7744	4.53418
-39.6638	-10.71572	4.60254
-39.6577	-3.3594	4.6709
-39.6523	1.51249	4.73926
-39.6469	0.3527202	4.80762
-39.6414	4.2208	4.87598
-39.6345	11.9771	4.94434
-39.6302	8.72774	5.0127
-39.62429	10.6988	5.08105
-39.6187	16.326	5.14941
-39.6125	17.8004	5.21777
-39.6062	23.0292	5.28613
-39.6017	29.3191	5.35449
-39.5953	35.4508	5.42285
-39.5911	36.7323	5.49121
-39.5842	39.9918	5.55957
-39.5784	46.4966	5.62793
-39.5728	48.0218	5.69629
-39.56728	47.85574	5.76465
-39.5619	51.8312	5.83301
-39.5555	56.6262	5.90137
-39.5504	56.4703	5.96973
-39.5447	63.1601	6.03809
-39.5386	69.8026	6.10645
-39.533	71.1908	6.1748
-39.5266	73.6173	6.24316
-39.522	80.8499	6.31152
-39.516	84.9665	6.37988
-39.5104	83.9691	6.44824
-39.5043	86.9773	6.5166
-39.4988	90.2419	6.58496
-39.4934	92.2546	6.65332
-39.4887	96.5846	6.72168
-39.4812	101.374	6.79004
-39.4763	106.184	6.8584
-39.4715	108.531	6.92676
-39.4656	115.4138	6.99512
-39.4584	120.562	7.06348
-39.4532	119.997	7.13184
-39.4471	121.822	7.2002
-39.4409	124.847	7.26855
-39.436	126.575	7.33691
-39.4313	130.153	7.40527
-39.4249	134.387	7.47363
-39.4196	139.8262	7.54199
-39.4132	143.828	7.61035
-39.4081	149.541	7.67871
-39.403	154.182	7.74707
-39.3969	156.73	7.81543
-39.3902	158.748	7.88379
-39.3849	157.679	7.95215
-39.3793	161.229	8.02051
-39.3734	164.284	8.08887
-39.3669	170.193	8.15723
-39.3611	169.477	8.22559
-39.3563	175.379	8.29395
-39.3505	182.225	8.3623
-39.3456	186.5417	8.43066
-39.3398	188.479	8.49902
-39.334	192.817	8.56738
-39.32798	192.823	8.63574
-39.3228	193.416	8.7041
-39.3164	198.057	8.77246
-39.3111	202.343	8.84082
-39.3053	202.142	8.90918
-39.2999	205.991	8.97754
-39.2934	214.21	9.0459
-39.2884	219.3273	9.11426
-39.2823	221.522	9.18262
-39.2777	225.084	9.25098
-39.2712	229.364	9.31934
-39.2655	228.009	9.3877
-39.2598	232.407	9.45605
-39.2542	234.92	9.52441
-39.2481	236.048	9.59277
-39.242	236.137	9.66113
-39.2366	244.709	9.72949
-39.2318	252.918	9.79785
-39.2242	253.393	9.86621
-39.22	257.374	9.93457
-39.2143	262.899	10.00293
-39.208	262.255	10.0713
-39.2033	264.048	10.1396
-39.1975	267.915	10.208
-39.1914	268.433	10.2764
-39.1857	266.444	10.3447
-39.1794	273.657	10.4131
-39.1744	284.865	10.4814
-39.1691	285.492	10.5498
-39.1626	289.071	10.6182
-39.15847	294.206	10.6865
-39.1509	294.144	10.7549
-39.1454	296.09	10.8232
-39.1408	297.366	10.8916
-39.1339	300.703	10.96
-39.1288	300.3205	11.02832
-39.1227	303.873	11.09668
-39.1166	313.299	11.165
-39.1127	314.728	11.2334
-39.1056	318.028	11.3018
-39.1006	322.383	11.3701
-39.0941	325.079	11.4385
-39.0887	326.579	11.5068
-39.08326	330.752	11.5752
-39.07724	330.481	11.6436
-39.0714	330.551	11.7119
-39.0658	331.585	11.7803
-39.0612	340.058	11.8486
-39.0542	343.405	11.917
-39.0489	347.262	11.9854
-39.043	352.833	12.0537
-39.0384	354.797	12.12207
-39.0317	358.641	12.19043
-39.0264	360.625	12.2588
-39.0201	361.254	12.3271
-39.0147	359.459	12.3955
-39.0099	360.233	12.4639
-39.004	366.991	12.5322
-38.9979	368.165	12.6006
-38.9922	373.587	12.6689
-38.9861	379.0816	12.7373
-38.9806	381.472	12.8057
-38.9759	386.4136	12.874
-38.96891	389.543	12.9424
-38.9637	389.297	13.0107
-38.9574	385.486	13.0791
-38.9534	389.12	13.1475
-38.9469	393.069	13.21582
-38.9413	394.744	13.28418
-38.9352	398.4	13.3525
-38.9285	403.87	13.4209
-38.9246	406.509	13.4893
-38.9192	410.325	13.5576
-38.9119	414.725	13.626
-38.9067	414.782	13.6943
-38.9013	411.383	13.7627
-38.8952	412.595	13.8311
-38.8905	417.934	13.8994
-38.8841	416.858	13.9678
-38.8784	417.891	14.0361
-38.8726	424.408	14.1045
-38.8669	426.743	14.1729
-38.8612	430.829	14.2412
-38.8547	434.856	14.30957
-38.8495	435.777	14.37793
-38.84444	432.814	14.4463
-38.8381	432.958	14.5146
-38.8332	436.9874	14.583
-38.827	435.4183	14.6514
-38.8216	435.795	14.7197
-38.8158	440.292	14.7881
-38.8088	445.727	14.8564
-38.8047	447.11	14.9248
-38.799	451.883	14.9932
-38.7934	454.513	15.0615
-38.7877	449.6792	15.1299
-38.782	446.92	15.1982
-38.7755	451.254	15.2666
-38.7704	449.9617	15.335
-38.7642	448.547	15.40332
-38.75795	451.167	15.47168
-38.7524	454.279	15.54
-38.7468	456.191	15.6084
-38.7414	458.694	15.6768
-38.7371	461.821	15.7451
-38.7303	459.631	15.8135
-38.7253	455.983	15.8818
-38.7181	457.169	15.9502
-38.7128	456.7373	16.0186
-38.7074	453.565	16.0869
-38.7018	454.903	16.1553
-38.6952	457.422	16.2236
-38.6902	458.89	16.292
-38.6846	462.815	16.3604
-38.679	462.63	16.4287
-38.6735	462.328	16.49707
-38.6674	459.119	16.56543
-38.6628	459.434	16.6338
-38.656	458.98	16.7021
-38.65012	455.303	16.7705
-38.6447	454.632	16.8389
-38.6389	454.559	16.9072
-38.6331	455.682	16.9756
-38.6286	459.928	17.0439
-38.6212	459.686	17.1123
-38.6158	458.7027	17.1807
-38.6106	457.056	17.249
-38.6056	457.086	17.3174
-38.5997	456.469	17.3857
-38.5933	452.28	17.4541
-38.5877	451.389	17.5225
-38.5806	450.056	17.59082
-38.57526	449.308	17.65918
-38.5705	452.499	17.7275
-38.5659	455.6239	17.7959
-38.5585	454.373	17.8643
-38.554	452.75	17.9326
-38.54702	454.428	18.001
-38.5425	451.692	18.0693
-38.5365	446.308	18.1377
-38.5301	446.586	18.2061
-38.5256	444.864	18.2744
-38.5193	442.55	18.3428
-38.5134	445.508	18.4111
-38.5087	449.617	18.4795
-38.5022	448.851	18.5479
-38.4969	447.248	18.6162
-38.4901	448.85	18.68457
-38.4856	450.421	18.75293
-38.47892	444.739	18.8213
-38.4737	444.777	18.8896
-38.4691	444.215	18.958
-38.4621	440.008	19.0264
-38.4566	441.927	19.0947
-38.4514	443.263	19.1631
-38.4464	446.655	19.2314
-38.4393	442.096	19.2998
-38.436	445.709	19.3682
-38.42907	448.943	19.4365
-38.4226	443.697	19.5049
-38.4164	442.757	19.5732
-38.4105	441.243	19.6416
-38.4057	438.1828	19.71
-38.4002	437.983	19.77832
-38.39349	440.718	19.84668
-38.3879	441.8923	19.915
-38.3833	440.132	19.9834
-38.37978	442.998	20.0127

Data Header:			0.254_solid_uprint_typeiv_090_r0			Time:	30.8262	s	4/14/2019 1:33:16 AM
Data Acquisition:	Timed
Station Name:	ft40.cfg
Test File Name:	monotonic_0.2540_typeiv_solid_090_uprint.tst
Displacement	Force	Running Time
mm	N	s
-38.3789	437.38	20.0225
-38.3767	444.895	20.0615
-38.37225	436.767	20.1006
-38.3691	438.45	20.1396
-38.3657	443.67	20.1787
-38.3614	434.673	20.2178
-38.3595	441.795	20.2568
-38.3568	443.003	20.2959
-38.35413	434.891	20.335
-38.3494	443.642	20.374
-38.3464	440.129	20.4131
-38.3435	438.659	20.4521
-38.3412	442.712	20.4912
-38.3365	437.572	20.5303
-38.3339	442.27	20.5693
-38.3309	441.037	20.6084
-38.3261	439.058	20.6475
-38.3235	444.311	20.6865
-38.3209	438.64	20.7256
-38.3176	440.54	20.7646
-38.3133	444.58	20.8037
-38.31	436.31	20.8428
-38.3073	440.206	20.8818
-38.3049	441.194	20.9209
-38.3005	434.906	20.96
-38.2991	445.286	20.999
-38.2956	438.173	21.0381
-38.2909	438.775	21.0771
-38.2898	440.241	21.1162
-38.2839	434.642	21.1553
-38.2814	440.439	21.1943
-38.278	437.869	21.2334
-38.2746	436.236	21.2725
-38.2718	442.3627	21.3115
-38.2684	435.958	21.3506
-38.2649	436.615	21.3896
-38.2624	442.214	21.4287
-38.2584	432.5585	21.4678
-38.2558	438.753	21.5068
-38.2524	438.397	21.5459
-38.2493	431.549	21.585
-38.2446	440.283	21.624
-38.242	434.079	21.6631
-38.2401	434.912	21.7021
-38.2368	440.245	21.7412
-38.2322	436.03	21.7803
-38.22953	437.225	21.8193
-38.2265	439.1908	21.8584
-38.223	435.282	21.8975
-38.2185	441.507	21.9365
-38.21595	436.514	21.9756
-38.2136	437.1069	22.0146
-38.2097	442.1911	22.0537
-38.2063	434.801	22.0928
-38.2038	440.813	22.1318
-38.1997	438.861	22.1709
-38.1966	433.63	22.21
-38.1937	441.342	22.249
-38.1894	436.427	22.2881
-38.1867	437.017	22.3271
-38.1844	440.02	22.3662
-38.1807	434.301	22.4053
-38.17802	438.3	22.4443
-38.1748	437.513	22.4834
-38.17075	433.087	22.5225
-38.1683	440.267	22.5615
-38.1651	433.437	22.6006
-38.1614	434.711	22.6396
-38.158	439.415	22.6787
-38.1538	430.832	22.7178
-38.1506	438.321	22.7568
-38.1485	436.9097	22.7959
-38.1444	430.111	22.835
-38.1415	439.162	22.874
-38.1379	436.459	22.9131
-38.1348	432.165	22.9521
-38.1308	439.534	22.9912
-38.1289	432.824	23.0303
-38.1254	434.305	23.0693
-38.1215	436.771	23.1084
-38.119	433.075	23.1475
-38.115	438.6879	23.1865
-38.1135	434.231	23.2256
-38.1086	437.898	23.2646
-38.1066	438.706	23.3037
-38.1028	433.611	23.3428
-38.0994	440.2222	23.3818
-38.0959	438.605	23.4209
-38.0923	433.5155	23.46
-38.0897	440.641	23.499
-38.0866	437.106	23.5381
-38.0828	435.652	23.5771
-38.0804	441.885	23.6162
-38.0765	432.774	23.6553
-38.0731	438.344	23.6943
-38.07085	437.06	23.7334
-38.0665	433.131	23.7725
-38.0633	437.671	23.8115
-38.0608	433.98	23.8506
-38.0575	434.897	23.8896
-38.0533	436.706	23.9287
-38.0516	431.711	23.9678
-38.0476	436.213	24.0068
-38.0448	436.565	24.0459
-38.0401	430.063	24.085
-38.03756	437.505	24.124
-38.0337	433.497	24.1631
-38.0312	432.047	24.2021
-38.0273	439.0022	24.2412
-38.0248	433.233	24.2803
-38.0213	433.252	24.3193
-38.0176	436.353	24.3584
-38.0161	431.806	24.3975
-38.0118	436.06	24.4365
-38.0096	432.926	24.4756
-38.005	435.388	24.5146
-38.002	435.538	24.5537
-37.9984	432.712	24.5928
-37.9949	437.205	24.6318
-37.9921	435.325	24.6709
-37.9884	432.677	24.71
-37.9847	440.847	24.749
-37.9818	432.976	24.7881
-37.97876	435.7673	24.8271
-37.9742	439.924	24.8662
-37.9722	432.364	24.9053
-37.9692	437.19	24.9443
-37.966	436.554	24.9834
-37.9626	434.8494	25.0225
-37.9599	438.376	25.0615
-37.95665	434.119	25.1006
-37.9523	434.971	25.1396
-37.949	437.525	25.1787
-37.9462	429.905	25.2178
-37.9435	437.236	25.2568
-37.9394	435.479	25.2959
-37.93578	428.591	25.335
-37.9336	439.304	25.374
-37.9301	430.5134	25.4131
-37.9267	431.646	25.4521
-37.9229	437.056	25.4912
-37.92083	431.293	25.5303
-37.9184	431.244	25.5693
-37.9139	434.263	25.6084
-37.91169	431.66	25.6475
-37.9069	435.155	25.6865
-37.90517	431.961	25.7256
-37.9018	434.728	25.7646
-37.8989	434.35	25.8037
-37.8944	429.521	25.8428
-37.8911	436.535	25.8818
-37.887	432.6665	25.9209
-37.88488	429.419	25.96
-37.8815	437.384	25.999
-37.8782	429.517	26.0381
-37.8745	434.466	26.0771
-37.8712	437.486	26.1162
-37.8692	429.855	26.1553
-37.8651	433.967	26.1943
-37.8621	435.832	26.2334
-37.85886	430.199	26.2725
-37.8554	438.383	26.3115
-37.85144	432.732	26.3506
-37.8482	433.981	26.3896
-37.8473	437.603	26.4287
-37.8435	429.122	26.4678
-37.8394	438.426	26.5068
-37.8362	433.009	26.5459
-37.8327	430.228	26.585
-37.82832	436.872	26.624
-37.8255	431.49	26.6631
-37.8226	430.139	26.7021
-37.8196	436.807	26.7412
-37.8153	429.101	26.7803
-37.8122	431.5173	26.8193
-37.8099	433.82	26.8584
-37.80595	428.429	26.8975
-37.8034	433.169	26.9365
-37.8003	428.32	26.9756
-37.797	432.451	27.0146
-37.7941	431.9007	27.0537
-37.7903	428.382	27.0928
-37.7864	434.935	27.1318
-37.783	430.808	27.1709
-37.7807	429.279	27.21
-37.776	436.837	27.249
-37.773	427.222	27.2881
-37.7701	429.433	27.3271
-37.7675	438.218	27.3662
-37.7641	425.383	27.4053
-37.7617	433.6261	27.4443
-37.7567	433.0842	27.4834
-37.75415	427.754	27.5225
-37.7505	435.025	27.5615
-37.7481	430.856	27.6006
-37.7439	433.381	27.6396
-37.7419	435.467	27.6787
-37.7375	430.132	27.7178
-37.7354	433.914	27.7568
-37.7316	433.411	27.7959
-37.7292	429.8038	27.835
-37.72514	436.773	27.874
-37.72311	429.343	27.9131
-37.7189	431.3215	27.9521
-37.71566	435.911	27.9912
-37.7113	427.805	28.0303
-37.709	434.2464	28.0693
-37.7058	433.076	28.1084
-37.7024	428.388	28.1475
-37.6987	432.119	28.1865
-37.6968	429.1488	28.2256
-37.692	429.864	28.2646
-37.6902	430.633	28.3037
-37.686	427.087	28.3428
-37.6826	432.307	28.3818
-37.681	428.477	28.4209
-37.6764	426.666	28.46
-37.6735	435.131	28.499
-37.6705	423.486	28.5381
-37.6659	429.607	28.5771
-37.663	433.345	28.6162
-37.66032	422.996	28.6553
-37.6567	432.075	28.6943
-37.6536	433.64	28.7334
-37.651	425.951	28.7725
-37.647	432.666	28.8115
-37.644	429.544	28.8506
-37.64	426.49	28.8896
-37.6377	434.974	28.9287
-37.6346	425.618	28.9678
-37.6311	433.112	29.0068
-37.6283	432.478	29.0459
-37.6234	427.634	29.085
-37.621	434.695	29.124
-37.6177	427.9996	29.1631
-37.6145	430.656	29.2021
-37.6115	432.982	29.2412
-37.607	426.458	29.2803
-37.6045	430.797	29.3193
-37.6014	431.496	29.3584
-37.5983	425.451	29.3975
-37.595	431.916	29.4365
-37.5918	428.496	29.4756
-37.58913	425.617	29.5146
-37.5849	430.906	29.5537
-37.5816	423.143	29.5928
-37.5783	430.576	29.6318
-37.5752	426.406	29.6709
-37.57267	423.892	29.71
-37.5692	429.702	29.749
-37.5655	422.438	29.7881
-37.5623	423.365	29.8271
-37.5588	428.558	29.8662
-37.555	417.5217	29.9053
-37.5529	425.1774	29.9443
-37.5487	425.197	29.9834
-37.547	413.817	30.0225
-37.5422	424.336	30.0615
-37.5407	415.563	30.1006
-37.53598	407.16	30.1396
-37.5297	-29.2197	30.1787
-37.52927	-48.24577	30.2178
-37.5265	-42.1315	30.2568
-37.5218	-41.3308	30.2959
-37.5196	-43.8691	30.335
-37.5165	-39.2319	30.374
-37.5129	-42.68021	30.4131
-37.5093	-42.698	30.4521
-37.5077	-37.88356	30.4912
-37.50272	-44.47686	30.5303
-37.5009	-38.2599	30.5693
-37.4974	-39.0071	30.6084
-37.4929	-43.7982	30.6475
-37.4909	-36.1223	30.6865
-37.4865	-43.176	30.7256
-37.48391	-40.097	30.7646
-37.4796	-38.8455	30.8037
-37.48037	-38.2567	30.8135