File: data/processed_data_files/tensile/0.254_solid_uprint_typei_4545_r(4).dat
Data Header:			0.254_solid_uprint_typei_4545_r0			Time:	20.0178	s	4/14/2019 4:25:27 AM
Data Acquisition:	Timed
Station Name:	ft40.cfg
Test File Name:	monotonic_0.2540_typei_solid_4545_uprint.tst
Displacement	Force	Running Time
mm	N	s
9.95773	-120.762	0.0224609
9.96034	-110.791	0.0908203
9.9661	-105.234	0.15918
9.9728	-98.50515	0.227539
9.9779	-88.7231	0.295898
9.98386	-86.8907	0.364258
9.98883	-90.9285	0.432617
9.99485	-92.654	0.500977
10.0013	-93.9188	0.569336
10.0063	-95.4003	0.637695
10.0114	-89.2409	0.706055
10.0172	-80.9718	0.774414
10.0228	-72.9907	0.842773
10.0293	-67.0532	0.911133
10.0354	-56.3829	0.979492
10.04	-49.1116	1.04785
10.0451	-52.8986	1.11621
10.0518	-53.2242	1.18457
10.0575	-54.966	1.25293
10.0629	-56.9759	1.32129
10.0685	-54.6964	1.38965
10.0743	-49.28051	1.45801
10.0798	-42.7715	1.52637
10.0865	-34.8304	1.59473
10.0909	-23.4492	1.66309
10.0972	-13.5123	1.73145
10.1017	-13.0885	1.7998
10.1083	-14.0595	1.86816
10.1142	-15.1321	1.93652
10.1195	-16.9695	2.00488
10.1258	-19.1027	2.07324
10.1313	-13.5743	2.1416
10.1373	-10.0811	2.20996
10.1425	-4.11051	2.27832
10.1479	9.01014	2.34668
10.1531	18.849	2.41504
10.1603	23.887	2.4834
10.1649	25.3133	2.55176
10.1713	24.8941	2.62012
10.1761	22.7999	2.68848
10.1824	20.8098	2.75684
10.1879	20.6804	2.8252
10.1935	23.021	2.89355
10.1999	29.4509	2.96191
10.2056	39.2253	3.03027
10.2107	51.4044	3.09863
10.2168	59.27137	3.16699
10.2222	63.51038	3.23535
10.2277	64.93605	3.30371
10.2336	63.6284	3.37207
10.2398	62.3346	3.44043
10.2453	59.5387	3.50879
10.2517	59.7201	3.57715
10.2561	63.90818	3.64551
10.262	74.7756	3.71387
10.2677	83.1697	3.78223
10.2738	93.0865	3.85059
10.2786	101.947	3.91895
10.284	104.371	3.9873
10.2904	102.12	4.05566
10.2973	102.297	4.12402
10.302	101.24	4.19238
10.307	97.68219	4.26074
10.3144	97.9883	4.3291
10.3191	107.745	4.39746
10.3252	117.554	4.46582
10.3305	124.648	4.53418
10.337	135.863	4.60254
10.3425	141.988	4.6709
10.3483	139.136	4.73926
10.3532	143.474	4.80762
10.3588	144.049	4.87598
10.3653	136.7859	4.94434
10.36994	133.516	5.0127
10.376	140.658	5.08105
10.381	150.7365	5.14941
10.3878	157.729	5.21777
10.3931	167.662	5.28613
10.3988	176.325	5.35449
10.4043	179.647	5.42285
10.4093	180.471	5.49121
10.4156	181.187	5.55957
10.4217	177.912	5.62793
10.4268	171.803	5.69629
10.4328	175.589	5.76465
10.438	183.7	5.83301
10.444	188.716	5.90137
10.4496	198.802	5.96973
10.4551	209.896	6.03809
10.4618	216.062	6.10645
10.4667	219.319	6.1748
10.4725	220.18	6.24316
10.4794	219.1597	6.31152
10.4847	212.031	6.37988
10.4893	212.734	6.44824
10.4963	219.6832	6.5166
10.5006	222.54	6.58496
10.5068	230.138	6.65332
10.5119	240.966	6.72168
10.5181	249.728	6.79004
10.5252	256.082	6.8584
10.5292	257.946	6.92676
10.5352	257.138	6.99512
10.5403	253.6	7.06348
10.5464	250.796	7.13184
10.5525	255.918	7.2002
10.5592	258.147	7.26855
10.5634	263.525	7.33691
10.5698	273.1387	7.40527
10.5752	283.235	7.47363
10.581	292.308	7.54199
10.5857	296.521	7.61035
10.5924	296.609	7.67871
10.5986	293.114	7.74707
10.6036	290.097	7.81543
10.6086	292.074	7.88379
10.6153	292.457	7.95215
10.621	295.656	8.02051
10.626	302.419	8.08887
10.6319	310.336	8.15723
10.6374	321.059	8.22559
10.6434	331.521	8.29395
10.6494	334.284	8.3623
10.65521	333.9104	8.43066
10.6603	333.025	8.49902
10.6667	332.853	8.56738
10.6717	330.0329	8.63574
10.6774	330.269	8.7041
10.6829	335.1731	8.77246
10.6889	341.031	8.84082
10.6945	352.7113	8.90918
10.6997	362.883	8.97754
10.7061	369.349	9.0459
10.71153	370.166	9.11426
10.718	371.911	9.18262
10.7233	373.141	9.25098
10.7286	368.276	9.31934
10.7344	365.678	9.3877
10.7395	368.701	9.45605
10.7455	371.215	9.52441
10.7509	381.657	9.59277
10.7577	394.0347	9.66113
10.7633	402.795	9.72949
10.7687	404.537	9.79785
10.7743	408.898	9.86621
10.7792	412.7182	9.93457
10.7852	406.175	10.00293
10.7918	402.772	10.0713
10.7974	403.875	10.1396
10.8025	405.296	10.208
10.8081	411.757	10.2764
10.8148	422.54	10.3447
10.8195	432.128	10.4131
10.8258	437.979	10.4814
10.8303	443.277	10.5498
10.8371	450.028	10.6182
10.8422	446.942	10.6865
10.8489	440.202	10.7549
10.8538	440.757	10.8232
10.8591	440.562	10.8916
10.8654	442.962	10.96
10.8707	452.779	11.02832
10.8766	462.704	11.09668
10.8817	470.226	11.165
10.8874	475.8894	11.2334
10.8945	485.817	11.3018
10.8992	485.597	11.3701
10.9048	480.015	11.4385
10.9121	479.157	11.5068
10.91659	476.588	11.5752
10.9225	477.74	11.6436
10.9275	482.124	11.7119
10.933	492.368	11.7803
10.9397	500.207	11.8486
10.9452	507.095	11.917
10.9509	515.886	11.9854
10.9555	521.021	12.0537
10.9622	517.795	12.12207
10.9682	515.0036	12.19043
10.9739	512.146	12.2588
10.9794	510.164	12.3271
10.9853	513.48	12.3955
10.9905	520.109	12.4639
10.99666	527.006	12.5322
11.00279	536.752	12.6006
11.0083	548.135	12.6689
11.0133	553.548	12.7373
11.0186	553.732	12.8057
11.0249	551.835	12.874
11.0309	547.9826	12.9424
11.0351	546.017	13.0107
11.0421	546.441	13.0791
11.0474	547.874	13.1475
11.0535	553.306	13.21582
11.0597	563.517	13.28418
11.0641	576.873	13.3525
11.0703	582.228	13.4209
11.0761	587.077	13.4893
11.08129	588.583	13.5576
11.0874	585.5575	13.626
11.0925	580.443	13.6943
11.0987	579.761	13.7627
11.1046	579.738	13.8311
11.1094	582.011	13.8994
11.1157	590.443	13.9678
11.1207	604.642	14.0361
11.1267	612.3371	14.1045
11.1329	619.421	14.1729
11.139	622.83	14.2412
11.1445	619.486	14.30957
11.1504	616.886	14.37793
11.1558	613.081	14.4463
11.1613	612.75	14.5146
11.1668	610.155	14.583
11.1721	616.442	14.6514
11.1781	631.249	14.7197
11.18508	638.231	14.7881
11.1895	646.132	14.8564
11.196	653.031	14.9248
11.2006	655.2193	14.9932
11.20692	651.021	15.0615
11.2134	650.246	15.1299
11.2174	647.115	15.1982
11.22434	641.669	15.2666
11.22808	644.742	15.335
11.2353	656.491	15.40332
11.2411	664.772	15.47168
11.2466	672.814	15.54
11.25155	681.401	15.6084
11.25818	686.068	15.6768
11.2637	684.451	15.7451
11.26968	682.424	15.8135
11.2755	679.5733	15.8818
11.2818	675.128	15.9502
11.2862	673.259	16.0186
11.2931	682.081	16.0869
11.2995	690.478	16.1553
11.3039	696.774	16.2236
11.3091	709.015	16.292
11.3145	716.147	16.3604
11.3218	717.488	16.4287
11.3264	715.176	16.49707
11.3313	713.03	16.56543
11.3379	707.18	16.6338
11.3428	701.646	16.7021
11.34959	707.665	16.7705
11.3549	716.035	16.8389
11.36036	724.1814	16.9072
11.3662	732.226	16.9756
11.3721	741.666	17.0439
11.3778	747.757	17.1123
11.3828	747.069	17.1807
11.389	745.33	17.249
11.3949	738.542	17.3174
11.4009	735.859	17.3857
11.4059	736.371	17.4541
11.4107	739.595	17.5225
11.4172	746.558	17.59082
11.4226	755.546	17.65918
11.4286	765.433	17.7275
11.4343	774.179	17.7959
11.4389	777.81	17.8643
11.4451	775.423	17.9326
11.4512	772.274	18.001
11.4572	765.5191	18.0693
11.4626	766.395	18.1377
11.4689	765.325	18.2061
11.4749	771.143	18.2744
11.4798	779.634	18.3428
11.4858	787.43	18.4111
11.4909	797.184	18.4795
11.4976	805.279	18.5479
11.5033	805.435	18.6162
11.5087	801.38	18.68457
11.5143	796.247	18.75293
11.5201	794.948	18.8213
11.5255	792.749	18.8896
11.5317	794.819	18.958
11.5374	801.039	19.0264
11.543	807.568	19.0947
11.5486	820.081	19.1631
11.5542	829.9566	19.2314
11.5599	832.1933	19.2998
11.5662	829.916	19.3682
11.571	826.991	19.4365
11.5769	826.266	19.5049
11.5829	821.536	19.5732
11.5874	819.623	19.6416
11.5934	824.882	19.71
11.6004	831.542	19.77832
11.6059	839.802	19.84668
11.6109	850.644	19.915
11.61636	858.298	19.9834
11.61888	835.388	20.0127

Data Header:			0.254_solid_uprint_typei_4545_r0			Time:	40.0188	s	4/14/2019 4:25:47 AM
Data Acquisition:	Timed
Station Name:	ft40.cfg
Test File Name:	monotonic_0.2540_typei_solid_4545_uprint.tst
Displacement	Force	Running Time
mm	N	s
11.61939	835.9566	20.0225
11.6254	842.3667	20.09082
11.6315	851.323	20.15918
11.6382	860.0177	20.2275
11.6427	866.04	20.2959
11.6488	870.258	20.3643
11.6544	867.54	20.4326
11.6596	863.405	20.501
11.6651	857.243	20.5693
11.6711	855.659	20.6377
11.6767	858.185	20.7061
11.6834	860.478	20.7744
11.6885	870.054	20.8428
11.6941	879.735	20.9111
11.70024	886.929	20.9795
11.7053	891.597	21.0479
11.7113	893.219	21.1162
11.7174	888.915	21.18457
11.72259	881.859	21.25293
11.7279	881.24	21.3213
11.7338	882.034	21.3896
11.7398	881.038	21.458
11.7453	888.209	21.5264
11.7504	899.43	21.5947
11.7559	902.304	21.6631
11.7625	911.916	21.7314
11.7668	915.235	21.7998
11.7741	914.619	21.8682
11.7797	907.293	21.9365
11.7849	903.8277	22.0049
11.7908	904.363	22.0732
11.7971	900.755	22.1416
11.8023	904.172	22.21
11.8079	914.425	22.27832
11.8125	920.869	22.34668
11.8198	928.086	22.415
11.82532	936.562	22.4834
11.8311	936.7215	22.5518
11.8364	928.794	22.6201
11.8418	929.5802	22.6885
11.8485	926.688	22.7568
11.8532	922.7016	22.8252
11.86	922.978	22.8936
11.8653	930.6972	22.9619
11.8705	938.697	23.0303
11.8758	944.927	23.0986
11.8819	953.3222	23.167
11.8875	955.489	23.2354
11.8927	952.602	23.3037
11.8996	951.008	23.37207
11.9046	948.778	23.44043
11.9105	944.3429	23.5088
11.9159	940.962	23.5771
11.9204	944.705	23.6455
11.9274	950.875	23.7139
11.9332	958.264	23.7822
11.9388	966.724	23.8506
11.9456	971.617	23.9189
11.951	971.014	23.9873
11.95517	970.194	24.0557
11.9613	970.004	24.124
11.967	964.083	24.1924
11.972	958.096	24.2607
11.9784	958.85	24.3291
11.9843	962.332	24.3975
11.991	971.868	24.46582
11.996	979.31	24.53418
12.0015	985.54	24.6025
12.0078	987.688	24.6709
12.0127	987.633	24.7393
12.0188	987.871	24.8076
12.0246	982.227	24.876
12.0308	975.509	24.9443
12.0357	975.781	25.0127
12.0416	974.613	25.0811
12.0472	981.212	25.1494
12.0529	989.059	25.2178
12.0588	995.671	25.2861
12.0635	998.653	25.3545
12.0693	1002.71	25.4229
12.075	1004.1	25.4912
12.08159	997.604	25.55957
12.08638	993.3252	25.62793
12.0919	990.219	25.6963
12.0996	987.201	25.7646
12.1036	992.1568	25.833
12.1092	998.12	25.9014
12.1158	1002.49	25.9697
12.1207	1008.42	26.0381
12.1265	1014.65	26.1064
12.13287	1015.56	26.1748
12.1384	1011.97	26.2432
12.1437	1007.91	26.3115
12.1497	1002.97	26.3799
12.1545	997.201	26.4482
12.1597	999.378	26.5166
12.1665	1005.69	26.585
12.1723	1006.34	26.65332
12.178	1013.386	26.72168
12.1839	1021.31	26.79
12.1891	1026.556	26.8584
12.1948	1024.94	26.9268
12.2008	1020.63	26.9951
12.2063	1017.501	27.0635
12.2118	1009.05	27.1318
12.2178	1008.49	27.2002
12.224	1012.61	27.2686
12.2298	1013.71	27.3369
12.2346	1016.33	27.4053
12.2401	1026.99	27.4736
12.2468	1032.87	27.542
12.252	1032.03	27.6104
12.25813	1030.4	27.6787
12.2635	1027.66	27.74707
12.2697	1020.98	27.81543
12.2737	1016.63	27.8838
12.2809	1017	27.9521
12.28525	1017.86	28.0205
12.2926	1019.05	28.0889
12.2985	1026.298	28.1572
12.3029	1037.72	28.2256
12.3085	1038.29	28.2939
12.3147	1036.97	28.3623
12.3198	1035.545	28.4307
12.3257	1030.08	28.499
12.3317	1024.88	28.5674
12.3372	1023.62	28.6357
12.3431	1023.37	28.7041
12.3495	1022.4	28.7725
12.3546	1028.59	28.84082
12.3597	1039.42	28.90918
12.3659	1043.05	28.9775
12.3711	1044.09	29.0459
12.37806	1043.62	29.1143
12.3828	1038.72	29.1826
12.3889	1032.95	29.251
12.3937	1029.07	29.3193
12.3995	1025.92	29.3877
12.40516	1023.09	29.4561
12.4115	1027.23	29.5244
12.4171	1037.97	29.5928
12.4228	1043.23	29.6611
12.4288	1045.56	29.7295
12.4354	1046.63	29.7979
12.4405	1044.32	29.8662
12.44566	1041.48	29.93457
12.4517	1034.58	30.00293
12.4573	1028.19	30.0713
12.4629	1025.82	30.1396
12.4687	1027.65	30.208
12.4743	1034.51	30.2764
12.48014	1040.45	30.3447
12.4865	1046.35	30.4131
12.4921	1050.08	30.4814
12.4955	1047.72	30.5498
12.5031	1046.59	30.6182
12.508	1041.39	30.6865
12.5136	1032.75	30.7549
12.5213	1028.8	30.8232
12.5256	1029.59	30.8916
12.5313	1034.4	30.96
12.5365	1038.19	31.02832
12.5424	1044.48	31.09668
12.5477	1051.74	31.165
12.5548	1048.98	31.2334
12.559	1050.225	31.3018
12.5649	1047.074	31.3701
12.5709	1040.05	31.4385
12.57659	1031.2	31.5068
12.5834	1029.64	31.5752
12.5882	1033.82	31.6436
12.5939	1035.17	31.7119
12.5994	1041.44	31.7803
12.6055	1048.25	31.8486
12.611	1048.5	31.917
12.6165	1052.53	31.9854
12.6224	1051.1	32.0537
12.6283	1045.54	32.12207
12.6331	1035.97	32.19043
12.6396	1033.16	32.2588
12.6459	1036.2	32.3271
12.6515	1033.91	32.3955
12.6568	1038.726	32.4639
12.6621	1047.47	32.5322
12.6678	1048.39	32.6006
12.6744	1052.95	32.6689
12.6794	1053.67	32.7373
12.6846	1050.29	32.8057
12.6908	1041.36	32.874
12.6974	1035.93	32.9424
12.7016	1036.511	33.0107
12.7084	1033.89	33.0791
12.71378	1037.819	33.1475
12.71951	1042.82	33.21582
12.7243	1047.29	33.28418
12.7305	1052.32	33.3525
12.7358	1053.939	33.4209
12.7422	1054.93	33.4893
12.7484	1045.87	33.5576
12.7536	1040.56	33.626
12.75822	1038.5	33.6943
12.764	1033.61	33.7627
12.77	1034.14	33.8311
12.7758	1039.72	33.8994
12.7822	1043.27	33.9678
12.7874	1049.18	34.0361
12.7925	1053.89	34.1045
12.7979	1054.52	34.1729
12.8044	1050.42	34.2412
12.8105	1044.21	34.30957
12.8163	1041.17	34.37793
12.8215	1035.87	34.4463
12.8269	1032.96	34.5146
12.8329	1035.84	34.583
12.839	1039.006	34.6514
12.8432	1046.55	34.7197
12.8504	1051.74	34.7881
12.8556	1054.37	34.8564
12.8615	1050.7	34.9248
12.86757	1049.19	34.9932
12.8732	1046.071	35.0615
12.8791	1038.03	35.1299
12.8834	1035.7	35.1982
12.89	1035.1	35.2666
12.896	1034.93	35.335
12.901	1043.83	35.40332
12.9073	1050.09	35.47168
12.913	1053.416	35.54
12.919	1052.01	35.6084
12.9244	1052.2	35.6768
12.9297	1049.32	35.7451
12.9354	1043.15	35.8135
12.9421	1038.8	35.8818
12.9462	1035.47	35.9502
12.9526	1033.66	36.0186
12.9578	1039.66	36.0869
12.964	1047.18	36.1553
12.9697	1050.13	36.2236
12.9755	1051.75	36.292
12.9811	1053.73	36.3604
12.9865	1054.15	36.4287
12.9933	1045.92	36.49707
12.998	1041.682	36.56543
13.0037	1039.31	36.6338
13.0089	1033.88	36.7021
13.014	1036.79	36.7705
13.0203	1043.03	36.8389
13.0266	1048.73	36.9072
13.0316	1048.67	36.9756
13.0376	1052.89	37.0439
13.0428	1057.02	37.1123
13.0491	1049.81	37.1807
13.05384	1044.41	37.249
13.0624	1040.95	37.3174
13.0658	1035.97	37.3857
13.0716	1033.874	37.4541
13.0771	1039.78	37.5225
13.0841	1044.53	37.59082
13.0889	1045.5	37.65918
13.0953	1052.73	37.7275
13.1005	1058.65	37.7959
13.1055	1053.55	37.8643
13.112	1046.78	37.9326
13.11848	1043.87	38.001
13.1228	1036.25	38.0693
13.1293	1036.08	38.1377
13.135	1036.73	38.2061
13.14082	1040.41	38.2744
13.1452	1042.22	38.3428
13.152	1046.98	38.4111
13.159	1055.45	38.4795
13.163	1056.29	38.5479
13.1692	1051.19	38.6162
13.1748	1047.41	38.68457
13.1798	1039.64	38.75293
13.1861	1036.37	38.8213
13.1912	1035.18	38.8896
13.1975	1035.14	38.958
13.2033	1037.5	39.0264
13.2081	1044.82	39.0947
13.2148	1052.78	39.1631
13.2196	1054.01	39.2314
13.2264	1053.14	39.2998
13.231	1049.23	39.3682
13.2374	1043.55	39.4365
13.2427	1040.64	39.5049
13.2481	1035.14	39.5732
13.2539	1034.63	39.6416
13.2602	1035.81	39.71
13.2656	1039.51	39.77832
13.271	1047.27	39.84668
13.2779	1050.91	39.915
13.28327	1053.52	39.9834
13.2846	1035.3	40.0127

Data Header:			0.254_solid_uprint_typei_4545_r0			Time:	60.0176	s	4/14/2019 4:26:07 AM
Data Acquisition:	Timed
Station Name:	ft40.cfg
Test File Name:	monotonic_0.2540_typei_solid_4545_uprint.tst
Displacement	Force	Running Time
mm	N	s
13.2872	1036.11	40.0225
13.2916	1043.68	40.09082
13.2971	1047.29	40.15918
13.3037	1048.71	40.2275
13.3094	1054.64	40.2959
13.3149	1052.81	40.3643
13.3211	1045.46	40.4326
13.3263	1040.56	40.501
13.3321	1037.63	40.5693
13.33678	1032.45	40.6377
13.3435	1033.77	40.7061
13.34916	1037.41	40.7744
13.35461	1042.76	40.8428
13.3587	1044.33	40.9111
13.3656	1052.9	40.9795
13.3713	1054.07	41.0479
13.3774	1048.3	41.1162
13.38282	1043.12	41.18457
13.3883	1036.91	41.25293
13.3941	1035.41	41.3213
13.4003	1034.12	41.3896
13.4054	1034.79	41.458
13.4113	1038.474	41.5264
13.4173	1042.48	41.5947
13.423	1050.01	41.6631
13.4288	1053.605	41.7314
13.4338	1050.83	41.7998
13.4387	1047.47	41.8682
13.4457	1041.97	41.9365
13.451	1036.42	42.0049
13.4567	1034.72	42.0732
13.4634	1033.05	42.1416
13.4684	1034.89	42.21
13.4737	1039.68	42.27832
13.48	1049.09	42.34668
13.4861	1051.546	42.415
13.4909	1051.78	42.4834
13.4962	1050.81	42.5518
13.5026	1045.77	42.6201
13.5086	1040.39	42.6885
13.5131	1037.681	42.7568
13.51935	1034.54	42.8252
13.525	1032.03	42.8936
13.5304	1035.51	42.9619
13.536	1044.06	43.0303
13.5424	1048.7	43.0986
13.5481	1049.89	43.167
13.5546	1052.64	43.2354
13.5594	1048.96	43.3037
13.5654	1042.98	43.37207
13.5715	1040.48	43.44043
13.5761	1035.36	43.5088
13.5819	1030.32	43.5771
13.588	1031.306	43.6455
13.5942	1039.82	43.7139
13.5988	1043.17	43.7822
13.605	1046.96	43.8506
13.6105	1053.43	43.9189
13.6156	1050.8	43.9873
13.6233	1045.68	44.0557
13.6273	1041.72	44.124
13.6342	1037.788	44.1924
13.6392	1029.49	44.2607
13.6459	1028.93	44.3291
13.651	1035.818	44.3975
13.6562	1041.44	44.46582
13.6623	1043.66	44.53418
13.6679	1050.32	44.6025
13.6728	1051.84	44.6709
13.6787	1049.11	44.7393
13.68441	1044.62	44.8076
13.69044	1041.41	44.876
13.6961	1032.26	44.9443
13.7013	1030.23	45.0127
13.7068	1033.728	45.0811
13.7125	1036.47	45.1494
13.7183	1039.475	45.2178
13.725	1047	45.2861
13.7295	1050.41	45.3545
13.7366	1050.06	45.4229
13.7413	1048.657	45.4912
13.7471	1043.407	45.55957
13.7529	1035.53	45.62793
13.7597	1030.31	45.6963
13.7646	1033.96	45.7646
13.77077	1034.1	45.833
13.7761	1036.3	45.9014
13.78186	1041.76	45.9697
13.7878	1047.29	46.0381
13.79301	1051.88	46.1064
13.7978	1050.55	46.1748
13.8049	1046.87	46.2432
13.8094	1039.06	46.3115
13.8148	1032.64	46.3799
13.8216	1030.62	46.4482
13.827	1032.12	46.5166
13.833	1033.6	46.585
13.8385	1039.11	46.65332
13.8441	1044.27	46.72168
13.84973	1049.04	46.79
13.8555	1050.29	46.8584
13.8614	1048.61	46.9268
13.8673	1040.298	46.9951
[...]
14.602	1031.7	55.8135
14.6073	1024.428	55.8818
14.6138	1027.44	55.9502
14.6189	1027.5	56.0186
14.6242	1028.21	56.0869
14.6312	1035.25	56.1553
14.6361	1041.255	56.2236
14.6413	1044.8	56.292
14.6471	1043.52	56.3604
14.6534	1043.37	56.4287
14.6593	1034.688	56.49707
14.66388	1027.75	56.56543
14.6698	1027.767	56.6338
14.6763	1027.24	56.7021
14.68027	1026.78	56.7705
14.6873	1031.11	56.8389
14.6936	1037.99	56.9072
14.6989	1042.17	56.9756
14.7044	1043.39	57.0439
14.7096	1043.78	57.1123
14.7161	1036.99	57.1807
14.72099	1031.36	57.249
14.7265	1030.105	57.3174
14.7328	1027.18	57.3857
14.7383	1024.54	57.4541
14.7443	1027.42	57.5225
14.7504	1033.7	57.59082
14.7565	1040.97	57.65918
14.7607	1042.74	57.7275
14.7673	1043.27	57.7959
14.7721	1038.72	57.8643
14.777	1035.14	57.9326
14.7826	1032.619	58.001
14.7901	1027.5	58.0693
14.79579	1025.93	58.1377
14.8005	1026.65	58.2061
14.8061	1028.32	58.2744
14.8122	1035.83	58.3428
14.819	1040.11	58.4111
14.8244	1043.05	58.4795
14.829	1040.86	58.5479
14.8351	1039.18	58.6162
14.8416	1035.02	58.68457
14.8467	1028.7	58.75293
14.8525	1026.04	58.8213
14.8582	1025.35	58.8896
14.8634	1025.51	58.958
14.8698	1032.17	59.0264
14.87604	1037.18	59.0947
14.8802	1039.58	59.1631
14.88632	1041.12	59.2314
14.8925	1041.92	59.2998
14.8987	1039.46	59.3682
14.9033	1032.54	59.4365
14.9094	1027.93	59.5049
14.9146	1025.33	59.5732
14.92	1023.41	59.6416
14.9267	1028.71	59.71
14.9322	1033.988	59.77832
14.9387	1038.03	59.84668
14.9431	1037.33	59.915
14.9493	1041.386	59.9834
14.95185	1024.74	60.0127

Data Header:			0.254_solid_uprint_typei_4545_r0			Time:	65.54541	s	4/14/2019 4:26:13 AM
Data Acquisition:	Timed
Station Name:	ft40.cfg
Test File Name:	monotonic_0.2540_typei_solid_4545_uprint.tst
Displacement	Force	Running Time
mm	N	s
14.9529	1025.46	60.0225
14.954	1038.93	60.042
14.95573	1032.45	60.0615
14.9576	1023.43	60.0811
14.9594	1038.14	60.1006
14.9604	1034.15	60.1201
14.9626	1023.54	60.1396
14.9627	1037.26	60.15918
14.9658	1041.11	60.1787
14.9674	1020.44	60.1982
14.9695	1035.51	60.2178
14.9704	1040.55	60.2373
14.9719	1026.1	60.2568
14.97377	1030.52	60.2764
14.9755	1043.91	60.2959
14.9772	1025.74	60.31543
14.9771	1029.15	60.335
14.98035	1041.77	60.3545
14.9828	1032.81	60.374
14.9822	1024.2	60.3936
14.98466	1041.27	60.4131
14.9863	1033.69	60.4326
14.9876	1023.59	60.4521
14.9903	1034.74	60.47168
14.9911	1037.08	60.4912
14.9943	1024.437	60.5107
14.995	1031.39	60.5303
14.9958	1037.235	60.5498
14.9982	1024.608	60.5693
14.9995	1031	60.5889
15.001	1042.29	60.6084
15.0025	1029.27	60.62793
15.0044	1023.89	60.6475
15.006	1041.198	60.667
15.0072	1033.17	60.6865
15.0097	1024.94	60.7061
15.0106	1036.72	60.7256
15.0119	1037.4	60.7451
15.0144	1020.58	60.7646
15.0164	1037.65	60.78418
15.0178	1035.3	60.8037
15.0199	1023.35	60.8232
15.0206	1033.71	60.8428
15.022	1042.26	60.8623
15.023	1022.87	60.8818
15.0263	1030.432	60.9014
15.0274	1041.28	60.9209
15.0283	1027.98	60.94043
15.02993	1026.43	60.96
15.032	1040.93	60.9795
15.0339	1029.072	60.999
15.0357	1026.62	61.0186
15.0378	1037.04	61.0381
15.0387	1033.49	61.0576
15.0414	1021.64	61.0771
15.0424	1036.57	61.09668
15.0441	1035.53	61.1162
15.0447	1025.24	61.1357
15.0467	1030.811	61.1553
15.0482	1039.09	61.1748
15.0498	1025.8	61.1943
15.0516	1027.78	61.2139
15.0531	1038.05	61.2334
15.0545	1027.22	61.25293
15.0558	1025.43	61.2725
15.05883	1040.79	61.292
15.0597	1032.43	61.3115
15.061	1020.88	61.3311
15.063	1036.319	61.3506
15.065	1032.93	61.3701
15.0675	1022.9	61.3896
15.0675	1033.24	61.40918
15.0696	1037.931	61.4287
15.0708	1018.71	61.4482
15.07209	1033.03	61.4678
15.0747	1038.75	61.4873
15.0763	1023.52	61.5068
15.078	1028.74	61.5264
15.07901	1042.55	61.5459
15.08	1025.01	61.56543
15.0828	1025.76	61.585
15.0841	1037.149	61.6045
15.08631	1032.11	61.624
15.0873	1024.1	61.6436
15.0894	1039.14	61.6631
15.0895	1029.55	61.6826
15.0922	1023.1	61.7021
15.0941	1035.47	61.72168
15.0955	1037.27	61.7412
15.09672	1020.65	61.7607
15.0985	1031.06	61.7803
15.1007	1035.51	61.7998
15.1017	1025.95	61.8193
15.1037	1026.87	61.8389
15.1058	1037.8	61.8584
15.1073	1027.8	61.87793
15.1095	1023.2	61.8975
15.1108	1038	61.917
15.1123	1029.16	61.9365
15.1131	1020.37	61.9561
15.1153	1037.063	61.9756
15.1162	1034.98	61.9951
15.1187	1019.15	62.0146
15.1201	1034.56	62.03418
15.1222	1036.84	62.0537
15.1226	1023.02	62.0732
15.1253	1030.87	62.0928
15.1259	1040.51	62.1123
15.1287	1020.43	62.1318
15.1301	1028.48	62.1514
15.1304	1039.72	62.1709
15.1329	1025.879	62.19043
15.13353	1023.7	62.21
15.1357	1040.26	62.2295
15.1382	1025.34	62.249
15.139	1024.27	62.2686
15.1408	1036.05	62.2881
15.144	1033.13	62.3076
15.1441	1022.45	62.3271
15.1461	1035.5	62.34668
15.1483	1032.9	62.3662
15.1496	1021.68	62.3857
15.15097	1029.04	62.4053
15.1518	1039.03	62.4248
15.1535	1023.73	62.4443
15.1553	1024.58	62.4639
15.1578	1037.4	62.4834
15.1588	1025.546	62.50293
15.1603	1024	62.5225
15.1623	1037.48	62.542
15.1649	1029.65	62.5615
15.16578	1021.37	62.5811
15.1665	1034.93	62.6006
15.1687	1031.76	62.6201
15.1698	1019.28	62.6396
15.1721	1031.38	62.65918
15.1739	1036.19	62.6787
15.1759	1018.505	62.6982
15.1772	1027.48	62.7178
15.1788	1035.26	62.7373
15.1794	1022.32	62.7568
15.1818	1025.38	62.7764
15.1833	1038.8	62.7959
15.1856	1021.45	62.81543
15.188	1024.05	62.835
15.1879	1037.5	62.8545
15.1902	1028.46	62.874
15.1908	1019.338	62.8936
15.19331	1036.71	62.9131
15.1932	1030.95	62.9326
15.1963	1021.04	62.9521
15.1983	1029.51	62.97168
15.19865	1032.97	62.9912
15.2011	1019.63	63.0107
15.2036	1029.106	63.0303
15.2057	1033.89	63.0498
15.2058	1021.4	63.0693
15.208	1023.48	63.0889
15.2102	1037.15	63.1084
15.20982	1023.65	63.12793
15.2135	1020.463	63.1475
15.2141	1033.79	63.167
15.2163	1027.3	63.1865
15.2175	1019.35	63.2061
15.2187	1032.2	63.2256
15.21989	1029.8	63.2451
15.2225	1016.72	63.2646
15.2245	1030.443	63.28418
15.2258	1031.717	63.3037
15.2273	1015.697	63.3232
15.2286	1026.47	63.3428
15.231	1035.02	63.3623
15.2329	1016.61	63.3818
15.2349	1021.87	63.4014
15.2356	1032.67	63.4209
15.2386	1019.32	63.44043
15.2386	1018.34	63.46
15.24077	1032.55	63.4795
15.2422	1018.49	63.499
15.2442	1015.12	63.5186
15.2455	1029.68	63.5381
15.2465	1025.64	63.5576
15.2491	1012.07	63.5771
15.25016	1024.53	63.59668
15.2526	1023.63	63.6162
15.2541	1013.73	63.6357
15.25529	1019.32	63.6553
15.2576	1026.38	63.6748
15.2582	1012.35	63.6943
15.2605	1017.25	63.7139
15.2612	1024.45	63.7334
15.2626	1012.87	63.75293
15.2656	1009.34	63.7725
15.2667	1023.9	63.792
15.2682	1004.85	63.8115
15.2755	20.2599	63.8311
15.2769	-30.2593	63.8506
15.276	-32.7051	63.8701
15.2781	-48.6555	63.8896
15.27857	-37.9017	63.90918
15.2797	-32.0126	63.9287
15.28124	-52.1968	63.9482
15.2822	-41.7008	63.9678
15.2837	-28.0901	63.9873
15.2848	-48.66193	64.0068
15.2866	-48.3992	64.0264
15.2887	-26.75351	64.0459
15.29	-44.8378	64.06543
15.2924	-47.3416	64.085
15.2936	-31.0547	64.1045
15.2956	-39.1343	64.124
15.2968	-49.8226	64.1436
15.2975	-31.10788	64.1631
15.3004	-38.2916	64.1826
15.3012	-49.9895	64.2021
15.3037	-38.0406	64.22168
15.3051	-30.4844	64.2412
15.3057	-49.2493	64.2607
15.3078	-41.2388	64.2803
15.3102	-33.121	64.2998
15.3119	-45.2874	64.3193
15.3122	-45.8834	64.3389
15.3149	-30.6714	64.3584
15.3154	-43.28508	64.37793
15.3174	-46.8307	64.3975
15.3197	-32.56731	64.417
15.3211	-40.7767	64.4365
15.3221	-50.47052	64.4561
15.3238	-34.6604	64.4756
15.3252	-34.3848	64.4951
15.3271	-49.4518	64.5146
15.3288	-40.0095	64.53418
15.33007	-33.79	64.5537
15.3316	-47.4832	64.5732
15.3332	-40.1509	64.5928
15.3355	-30.77961	64.6123
15.3376	-48.4626	64.6318
15.3389	-43.42815	64.6514
15.3403	-31.4486	64.6709
15.3405	-43.439	64.69043
15.3429	-48.1633	64.71
15.3453	-30.3444	64.7295
15.3463	-42.833	64.749
15.3476	-47.0896	64.7686
15.3498	-35.2145	64.7881
15.352	-37.6877	64.8076
15.3524	-49.8822	64.8271
15.3556	-31.9129	64.84668
15.3562	-37.1715	64.8662
15.3575	-49.1185	64.8857
15.3594	-43.2665	64.9053
15.3621	-31.7193	64.9248
15.3621	-46.7249	64.9443
15.3652	-43.2026	64.9639
15.3665	-33.5742	64.9834
15.3673	-41.3707	65.00293
15.3701	-47.0872	65.0225
15.3717	-32.4934	65.042
15.3723	-40.9738	65.0615
15.3745	-47.388	65.0811
15.3762	-35.5852	65.1006
15.378	-35.3305	65.1201
15.3782	-49.80479	65.1396
15.3806	-38.3624	65.15918
15.3832	-31.7697	65.1787
15.3845	-49.2436	65.1982
15.3855	-42.38641	65.2178
15.3882	-32.4395	65.2373
15.3894	-47.5633	65.2568
15.3896	-43.4424	65.2764
15.3924	-29.9196	65.2959
15.3941	-46.9646	65.31543
15.396	-47.6497	65.335
15.3971	-31.6175	65.3545
15.3981	-39.4369	65.374
15.3993	-51.1917	65.3936
15.4022	-33.64407	65.4131
15.4042	-38.9395	65.4326
15.405	-46.5224	65.4521
15.4072	-36.4569	65.47168
15.4089	-35.75	65.4912
15.4104	-49.9061	65.5107
15.4119	-39.4778	65.5303
15.4122	-34.6438	65.54