File: data/processed_data_files/tensile/0.254_hd_uprint_typeiv_090_r(9).dat
MTS793|BTW|ENU|1|2|.|/|:|1|0|0|A

Data Header:			0.254_hd_uprint_typeiv_090_r0			Time:	20.0305	s	4/13/2019 11:19:04 PM
Data Acquisition:	Timed
Station Name:	ft40.cfg
Test File Name:	monotonic_0.2540_typeiv_solid_4545_uprint.tst
Displacement	Force	Running Time
mm	N	s
-40.0423	-110.851	0.0354004
-40.04	-108.94	0.10376
-40.0349	-103.26	0.172119
-40.0297	-98.0952	0.240479
-40.0224	-95.6716	0.308838
-40.0182	-96.7846	0.377197
-40.01244	-94.0214	0.445557
-40.0071	-90.7724	0.513916
-39.9999	-89.5497	0.582275
-39.9948	-85.3555	0.650635
-39.9899	-82.0375	0.718994
-39.9839	-77.0441	0.787354
-39.97879	-72.0488	0.855713
-39.9729	-65.497	0.924072
-39.9671	-63.5987	0.992432
-39.9626	-63.95837	1.060791
-39.9552	-60.3023	1.12915
-39.9497	-55.52	1.19751
-39.9446	-57.5945	1.26587
-39.9381	-52.9325	1.33423
-39.932	-48.5451	1.40259
-39.9268	-46.937	1.47095
-39.9222	-39.7631	1.53931
-39.9153	-31.7231	1.607666
-39.9096	-34.2637	1.67603
-39.9058	-29.8954	1.74438
-39.8991	-24.9646	1.81274
-39.8923	-21.7599	1.8811
-39.8864	-23.4166	1.94946
-39.8821	-19.1048	2.01782
-39.8749	-16.3152	2.08618
-39.8691	-14.6248	2.154541
-39.8647	-7.92987	2.2229
-39.8587	-3.91692	2.29126
-39.855	-0.768509	2.35962
-39.8482	1.65301	2.42798
-39.84201	8.13388	2.49634
-39.8354	10.1095	2.5647
-39.8306	9.77915	2.63306
-39.8245	13.7997	2.701416
-39.8188	15.917	2.76978
-39.8121	17.7687	2.83813
-39.8073	21.721	2.90649
-39.8017	28.9468	2.97485
-39.7948	29.5887	3.04321
-39.7898	34.2868	3.11157
-39.785	43.3748	3.17993
-39.7783	43.5131	3.248291
-39.7727	43.2119	3.31665
-39.7677	47.8101	3.38501
-39.7617	48.6574	3.45337
-39.7559	50.6957	3.52173
-39.7499	55.1586	3.59009
-39.7447	59.85408	3.65845
-39.7385	58.9598	3.72681
-39.7338	65.8459	3.795166
-39.7277	75.8739	3.86353
-39.7226	76.6947	3.93188
-39.7159	77.86042	4.00024
-39.7112	82.3307	4.0686
-39.706	81.7059	4.13696
-39.6989	82.08728	4.20532
-39.6951	87.1105	4.27368
-39.687	89.7175	4.342041
-39.68121	90.2916	4.4104
-39.6768	97.9677	4.47876
-39.6704	105.774	4.54712
-39.6654	108.658	4.61548
-39.6604	109.5891	4.68384
-39.6537	114.378	4.7522
-39.6477	114.384	4.82056
-39.6424	114.286	4.888916
-39.6365	118.285	4.95728
-39.63105	119.86	5.02563
-39.6247	122.485	5.09399
-39.6187	128.3815	5.16235
-39.6143	135.6151	5.23071
-39.6073	137.94	5.29907
-39.6022	142.308	5.36743
-39.5964	145.483	5.435791
-39.5912	147.351	5.50415
-39.5851	148.639	5.57251
-39.5805	149.996	5.64087
-39.5741	148.883	5.70923
-39.5679	150.104	5.77759
-39.5618	158.7726	5.84595
-39.5568	165.277	5.91431
-39.5501	169.411	5.982666
-39.5448	173.887	6.05103
-39.5397	177.384	6.11938
-39.5339	178.592	6.18774
-39.5276	181.4397	6.2561
-39.5232	181.099	6.32446
-39.5167	179.928	6.39282
-39.5106	183.5256	6.46118
-39.5059	189.5153	6.529541
-39.5005	194.05	6.5979
-39.4939	199.695	6.66626
-39.489	203.603	6.73462
-39.4831	205.939	6.80298
-39.4774	210.518	6.87134
-39.4715	213.422	6.9397
-39.4649	212.615	7.00806
-39.46014	210.605	7.076416
-39.4544	215.038	7.14478
-39.4491	219.239	7.21313
-39.4431	221.2117	7.28149
-39.4385	227.8492	7.34985
-39.4322	232.198	7.41821
-39.4267	234.878	7.48657
-39.4204	240.2332	7.55493
-39.4155	243.614	7.623291
-39.4092	242.305	7.69165
-39.4026	241.8517	7.76001
-39.3962	246.3291	7.82837
-39.39151	248.182	7.89673
-39.38591	248.238	7.96509
-39.3804	254.791	8.03345
-39.37376	260.387	8.10181
-39.3695	262.946	8.170166
-39.3635	269.435	8.23853
-39.3576	274.467	8.30688
-39.3529	272.675	8.37524
-39.3468	271.485	8.4436
-39.3408	275.938	8.51196
-39.3351	275.942	8.58032
-39.32996	277.946	8.64868
-39.3241	282.76	8.717041
-39.3178	287.39	8.7854
-39.3108	289.867	8.85376
-39.3062	296.3782	8.92212
-39.2999	300.698	8.99048
-39.2947	297.749	9.05884
-39.2891	300.337	9.1272
-39.283	305.265	9.19556
-39.2776	305.979	9.263916
-39.2713	306.287	9.33228
-39.2668	310.508	9.40063
-39.2609	314.209	9.46899
-39.2548	316.572	9.53735
-39.2486	321.996	9.60571
-39.2439	326.493	9.67407
-39.238	325.939	9.74243
-39.2322	328.313	9.810791
-39.2266	334.166	9.87915
-39.2209	333.703	9.94751
-39.2151	331.411	10.0159
-39.2081	336.384	10.0842
-39.20414	338.5491	10.1526
-39.1978	343.361	10.2209
-39.19228	346.251	10.2893
-39.1867	352.748	10.3577
-39.1808	352.0726	10.426
-39.1749	353.975	10.4944
-39.1692	360.496	10.5627
-39.1637	357.994	10.6311
-39.15855	357.331	10.6995
-39.1513	361.125	10.7678
-39.1463	360.408	10.8362
-39.1418	364.606	10.9045
-39.1354	368.296	10.9729
-39.1299	371.136	11.04126
-39.1233	373.7392	11.1096
-39.1184	378.753	11.178
-39.1123	384.008	11.2463
-39.10759	383.155	11.3147
-39.1009	382.549	11.3831
-39.0959	384.721	11.4514
-39.09024	383.811	11.5198
-39.0838	385.471	11.5881
-39.0782	388.702	11.6565
-39.0735	391.013	11.7249
-39.0664	394.994	11.7932
-39.0616	400.202	11.8616
-39.0555	403.429	11.9299
-39.0506	403.853	11.9983
-39.0442	405.159	12.06665
-39.03817	402.937	12.13501
-39.0328	404.537	12.2034
-39.02647	406.901	12.2717
-39.021	407.331	12.3401
-39.0155	406.745	12.4084
-39.0104	410.314	12.4768
-39.0045	416.482	12.5452
-38.9988	419.573	12.6135
-38.9923	421.326	12.6819
-38.9887	423.469	12.7502
-38.98193	419.592	12.8186
-38.9755	420.577	12.887
-38.9695	421.461	12.9553
-38.964	418.577	13.0237
-38.9582	418.473	13.092
-38.9528	421.95	13.1604
-38.9471	428.076	13.22876
-38.9409	430.57	13.2971
-38.9367	432.272	13.3655
-38.9306	433.661	13.4338
-38.9254	430.305	13.5022
-38.9194	432.024	13.5706
-38.9134	430.431	13.6389
-38.90699	427.07	13.7073
-38.9016	424.775	13.7756
-38.8964	428.0943	13.844
-38.89	432.788	13.9124
-38.8845	433.562	13.9807
-38.8789	436.83	14.0491
-38.87365	439.461	14.1174
-38.8687	433.769	14.1858
-38.8616	435.806	14.25415
-38.85603	436.125	14.32251
-38.8513	429.191	14.3909
-38.8447	424.6	14.4592
-38.8391	428.898	14.5276
-38.83437	432.96	14.5959
-38.8285	431.3577	14.6643
-38.8216	433.983	14.7327
-38.81543	437.943	14.801
-38.8109	434.808	14.8694
-38.8047	433.977	14.9377
-38.7994	435.158	15.0061
-38.7934	429.025	15.0745
-38.7894	423.7	15.1428
-38.7816	426.963	15.2112
-38.7768	428.584	15.2795
-38.7692	427.086	15.3479
-38.765	430.1033	15.41626
-38.7611	432.697	15.4846
-38.7539	431.7417	15.553
-38.7486	431.6297	15.6213
-38.7428	430.7941	15.6897
-38.7372	423.834	15.7581
-38.7306	421.416	15.8264
-38.7257	423.071	15.8948
-38.7198	424.009	15.9631
-38.7146	420.471	16.0315
-38.708	424.66	16.0999
-38.7032	427.234	16.1682
-38.6969	428.328	16.2366
-38.6919	426.905	16.3049
-38.6855	427.046	16.3733
-38.6793	422.448	16.44165
-38.6735	417.546	16.51001
-38.6672	421.783	16.5784
-38.6627	419.8653	16.6467
-38.6566	418.39	16.7151
-38.651	419.687	16.7834
-38.6454	421.2767	16.8518
-38.6396	423.498	16.9202
-38.63414	425.111	16.9885
-38.6292	424.55	17.0569
-38.6214	421.675	17.1252
-38.6174	416.887	17.1936
-38.6118	418.2066	17.262
-38.6054	417.261	17.3303
-38.6003	416.598	17.3987
-38.5941	415.113	17.467
-38.5878	414.283	17.5354
-38.5825	419.48	17.60376
-38.57655	420.51	17.6721
-38.5715	420.816	17.7405
-38.5665	417.0817	17.8088
-38.56	416.549	17.8772
-38.554	416.579	17.9456
-38.5492	413.783	18.0139
-38.5426	413.845	18.0823
-38.5367	412.084	18.1506
-38.5322	412.385	18.219
-38.5261	415.949	18.2874
-38.51963	417.876	18.3557
-38.5148	415.435	18.4241
-38.5087	415.783	18.4924
-38.5025	417.4303	18.5608
-38.4979	416.347	18.62915
-38.4918	416.006	18.69751
-38.4862	412.931	18.7659
-38.4811	410.646	18.8342
-38.4746	411.84	18.9026
-38.4692	412.956	18.9709
-38.4638	415.142	19.0393
-38.4579	412.318	19.1077
-38.4517	413.432	19.176
-38.4456	419.615	19.2444
-38.4395	416.444	19.3127
-38.43404	412.373	19.3811
-38.4288	412.92	19.4495
-38.4229	409.115	19.5178
-38.4169	408.191	19.5862
-38.4119	410.243	19.6545
-38.4057	412.6911	19.7229
-38.40057	410.387	19.79126
-38.3962	413.394	19.8596
-38.3892	418.75	19.928
-38.3835	415.139	19.9963
-38.3812	407.357	20.0256

Data Header:			0.254_hd_uprint_typeiv_090_r0			Time:	34.4746	s	4/13/2019 11:19:18 PM
Data Acquisition:	Timed
Station Name:	ft40.cfg
Test File Name:	monotonic_0.2540_typeiv_solid_4545_uprint.tst
Displacement	Force	Running Time
mm	N	s
-38.38055	410.168	20.0354
-38.3758	410.1416	20.0842
-38.3725	414.214	20.1331
-38.3672	416.93	20.1819
-38.364	412.392	20.2307
-38.3605	408.73	20.2795
-38.3544	410.645	20.3284
-38.352	416.286	20.3772
-38.3469	412.245	20.426
-38.3443	407.129	20.4749
-38.3389	406.528	20.5237
-38.3352	410.869	20.57251
-38.3314	416.512	20.6213
-38.327	412.99	20.6702
-38.3234	408.534	20.719
-38.3191	408.711	20.7678
-38.3149	415.35	20.81665
-38.3113	415.971	20.8655
-38.3067	409.507	20.9143
-38.30331	408.868	20.9631
-38.2977	413.232	21.012
-38.2937	416	21.0608
-38.2903	411.58	21.1096
-38.2868	406.371	21.1584
-38.2831	404.3526	21.2073
-38.2775	412.706	21.2561
-38.2749	414.757	21.3049
-38.2709	413.216	21.35376
-38.2661	405.994	21.4026
-38.2626	407.515	21.4514
-38.2575	414.68	21.5002
-38.2548	414.56	21.5491
-38.2497	409.374	21.5979
-38.2455	406.608	21.6467
-38.242	412.49	21.6956
-38.2378	416.309	21.7444
-38.2339	410.79	21.7932
-38.2284	403.942	21.842
-38.2257	405.213	21.8909
-38.2224	412.238	21.9397
-38.2179	413.382	21.9885
-38.213	409.136	22.0374
-38.2079	406.919	22.0862
-38.2048	408.344	22.13501
-38.2011	413.623	22.1838
-38.1972	412.799	22.2327
-38.1925	406.912	22.2815
-38.1883	407.625	22.3303
-38.184	411.596	22.37915
-38.1805	414.853	22.428
-38.1762	410.016	22.4768
-38.173	403.0723	22.5256
-38.169	406.028	22.5745
-38.1641	412.469	22.6233
-38.15966	413.34	22.6721
-38.1558	408.732	22.7209
-38.1519	406.105	22.7698
-38.1484	409.047	22.8186
-38.1447	414.633	22.8674
-38.1405	411.496	22.91626
-38.1358	407.013	22.9651
-38.1331	407.629	23.0139
-38.1281	412.592	23.0627
-38.1243	415.5683	23.1116
-38.1196	408.5773	23.1604
-38.1168	403.713	23.2092
-38.1124	407.026	23.2581
-38.1077	410.529	23.3069
-38.1033	412.081	23.3557
-38.0988	405.7948	23.4045
-38.0957	406.802	23.4534
-38.0914	409.02	23.5022
-38.087	411.4429	23.551
-38.0834	408.232	23.5999
-38.0783	406.048	23.6487
-38.0753	406.758	23.69751
-38.0705	411.735	23.7463
-38.0668	411.948	23.7952
-38.0621	408.331	23.844
-38.0589	404.819	23.8928
-38.054	407.189	23.94165
-38.0515	411.34	23.9905
-38.0458	408.203	24.0393
-38.0434	405.268	24.0881
-38.0386	408.531	24.137
-38.0344	410.351	24.1858
-38.0303	409.951	24.2346
-38.0263	405.582	24.2834
-38.022	406.054	24.3323
-38.0183	408.6528	24.3811
-38.0133	412.58	24.4299
-38.0099	409.716	24.47876
-38.0064	405.49	24.5276
-38.0025	406.474	24.5764
-37.99826	407.378	24.6252
-37.9935	409.633	24.6741
-37.9887	407.095	24.7229
-37.9855	405.754	24.7717
-37.9815	409.807	24.8206
-37.9771	409.395	24.8694
-37.9729	407.269	24.9182
-37.9689	404.667	24.967
-37.9668	405.235	25.0159
-37.96067	409.539	25.0647
-37.9568	409.295	25.1135
-37.9526	407.3555	25.1624
-37.94907	406.19	25.2112
-37.9456	406.3931	25.26001
-37.9398	408.536	25.3088
-37.9361	407.681	25.3577
-37.9327	403.251	25.4065
-37.9279	406.1442	25.4553
-37.925	409.75	25.50415
-37.9199	411.5965	25.553
-37.9166	405.984	25.6018
-37.91243	402.863	25.6506
-37.9082	405.701	25.6995
-37.9045	409.137	25.7483
-37.9003	408.965	25.7971
-37.89555	404.409	25.8459
-37.8922	403.732	25.8948
-37.8883	409.751	25.9436
-37.8843	408.138	25.9924
-37.8811	405.661	26.04126
-37.8749	403.268	26.0901
-37.8709	405.597	26.1389
-37.8668	411.151	26.1877
-37.8634	410.413	26.2366
-37.8595	403.806	26.2854
-37.8554	400.03	26.3342
-37.8509	405.705	26.3831
-37.8478	409.859	26.4319
-37.8432	405.053	26.4807
-37.838	403.151	26.5295
-37.83543	404.955	26.5784
-37.8314	409.452	26.6272
-37.8261	408.391	26.676
-37.8232	402.595	26.7249
-37.8191	400.824	26.7737
-37.8152	406.348	26.82251
-37.8102	410.553	26.8713
-37.8058	408.907	26.9202
-37.8025	404.1778	26.969
-37.7986	400.676	27.0178
-37.7943	408.866	27.06665
-37.79081	408.051	27.1155
-37.7859	404.487	27.1643
-37.7819	398.895	27.2131
-37.779	405.033	27.262
-37.7741	411.302	27.3108
-37.76963	405.518	27.3596
-37.7655	399.682	27.4084
-37.7618	399.037	27.4573
-37.757	407.144	27.5061
-37.75322	412.018	27.5549
-37.7495	405.974	27.60376
-37.7462	401.7829	27.6526
-37.7412	403.372	27.7014
-37.7381	407.82	27.7502
-37.7336	407.1788	27.7991
-37.7285	401.8	27.8479
-37.7248	398.71	27.8967
-37.7213	402.704	27.9456
-37.7168	409.134	27.9944
-37.7129	405.101	28.0432
-37.7081	397.296	28.092
-37.7054	400.087	28.1409
-37.7009	407.404	28.1897
-37.697	410.017	28.2385
-37.69315	404.508	28.2874
-37.6877	402.197	28.3362
-37.6843	402.156	28.38501
-37.6804	406.886	28.4338
-37.6763	406.183	28.4827
-37.67178	400.837	28.5315
-37.6674	397.68	28.5803
-37.664	404.676	28.62915
-37.6601	406.659	28.678
-37.65588	402.896	28.7268
-37.6517	396.616	28.7756
-37.6483	399.996	28.8245
-37.6444	405.489	28.8733
-37.6394	406.643	28.9221
-37.6363	403.252	28.9709
-37.6309	402.346	29.0198
-37.6271	406.69	29.0686
-37.6231	407.201	29.1174
-37.61932	405.987	29.16626
-37.6158	397.6691	29.2151
-37.6109	398.759	29.2639
-37.6077	404.539	29.3127
-37.6033	405.422	29.3616
-37.5982	401.577	29.4104
-37.5948	396.607	29.4592
-37.5908	399.0867	29.5081
-37.5873	402.662	29.5569
-37.5824	403.238	29.6057
-37.578	401.335	29.6545
-37.575	401.236	29.7034
-37.5711	404.494	29.7522
-37.5667	404.587	29.801
-37.5636	403.052	29.8499
-37.5576	399.689	29.8987
-37.5542	401.413	29.94751
-37.5494	404.326	29.9963
-37.5465	403.162	30.0452
-37.5418	399.189	30.094
-37.5386	396.2	30.1428
-37.53397	400.903	30.19165
-37.5304	402.071	30.2405
-37.5266	401.086	30.2893
-37.522	398.77	30.3381
-37.517	400.375	30.387
-37.5137	405.187	30.4358
-37.5088	403.736	30.4846
-37.5043	399.81	30.5334
-37.5015	398.565	30.5823
-37.4974	402.8374	30.6311
-37.4927	403.298	30.6799
-37.4885	401.217	30.72876
-37.4854	397.209	30.7776
-37.48	396.744	30.8264
-37.4764	398.415	30.8752
-37.4725	397.951	30.9241
-37.4692	396.928	30.9729
-37.4651	397.657	31.0217
-37.4592	402.082	31.0706
-37.4569	403.453	31.1194
-37.4524	400.375	31.1682
-37.448	397.353	31.217
-37.4442	397.1246	31.2659
-37.44022	400.687	31.3147
-37.4358	401.077	31.3635
-37.4324	397.185	31.4124
-37.4282	394.687	31.4612
-37.4256	396.274	31.51001
-37.4194	396.413	31.5588
-37.415	394.003	31.6077
-37.4124	393.808	31.6565
-37.4083	395.014	31.7053
-37.4035	399.209	31.75415
-37.3997	400.641	31.803
-37.396	395.594	31.8518
-37.39106	392.175	31.9006
-37.3882	395.5444	31.9495
-37.3834	397.535	31.9983
-37.377	-35.2458	32.0471
-37.3752	-44.8387	32.0959
-37.3705	-42.6436	32.1448
-37.3674	-41.9164	32.1936
-37.3634	-41.9646	32.2424
-37.3573	-45.5074	32.29126
-37.3548	-48.479	32.3401
-37.3511	-44.2998	32.3889
-37.3461	-37.7157	32.4377
-37.3426	-40.1047	32.4866
-37.3383	-43.6775	32.5354
-37.3336	-45.8562	32.5842
-37.3285	-41.67281	32.6331
-37.3252	-37.6966	32.6819
-37.3227	-40.8561	32.7307
-37.3167	-44.5872	32.7795
-37.3135	-43.5402	32.8284
-37.31	-37.7948	32.8772
-37.3059	-40.522	32.926
-37.3013	-46.2976	32.9749
-37.2969	-48.0953	33.0237
-37.2941	-45.1717	33.07251
-37.2894	-38.3721	33.1213
-37.2859	-41.61171	33.1702
-37.2806	-44.0728	33.219
-37.2763	-47.45369	33.2678
-37.2741	-40.6261	33.31665
-37.2698	-37.6207	33.3655
-37.2649	-43.9851	33.4143
-37.2613	-45.5475	33.4631
-37.2559	-43.0111	33.512
-37.2526	-37.012	33.5608
-37.2492	-41.9963	33.6096
-37.244	-46.78463	33.6584
-37.2413	-48.9038	33.7073
-37.2375	-40.9365	33.7561
-37.2314	-37.6268	33.8049
-37.2281	-43.0817	33.85376
-37.2252	-45.3044	33.9026
-37.22	-45.411	33.9514
-37.2168	-39.3272	34.0002
-37.2115	-38.4397	34.0491
-37.2085	-44.5042	34.0979
-37.2045	-45.903	34.1467
-37.1994	-41.92794	34.1956
-37.19664	-37.1807	34.2444
-37.192	-41.8198	34.2932
-37.1879	-48.4022	34.342
-37.1827	-46.8661	34.3909
-37.1806	-39.7795	34.4397
-37.1777	-43.021	34.469