File: data/processed_data_files/tensile/0.254_solid_dimension_typeiv_4545_r(1).dat
MTS793|BTW|ENU|1|2|.|/|:|1|0|0|A

Data Header:			0.254_solid_dimension_typeiv_4545_r0			Time:	20.019	s	4/13/2019 8:32:31 PM
Data Acquisition:	Timed
Station Name:	ft40.cfg
Test File Name:	monotonic_0.2540_typeiv_solid_4545_dimension.tst
Displacement	Force	Running Time
mm	N	s
-40.0343	-193.4171	0.0229492
-40.0322	-190.611	0.0913086
-40.0255	-188.103	0.159668
-40.0193	-188.592	0.228027
-40.0146	-184.299	0.296387
-40.0098	-176.743	0.364746
-40.0034	-171.805	0.433105
-39.9973	-165.956	0.501465
-39.9908	-158.767	0.569824
-39.9865	-158.114	0.638184
-39.9798	-153.982	0.706543
-39.9752	-149.044	0.774902
-39.9693	-147.556	0.843262
-39.9633	-147.917	0.911621
-39.9571	-144.158	0.97998
-39.9523	-136.678	1.04834
-39.94648	-132.868	1.1167
-39.9402	-127.352	1.18506
-39.9359	-120.181	1.253418
-39.9288	-115.429	1.32178
-39.924	-111.065	1.39014
-39.918	-106.648	1.4585
-39.9115	-107.282	1.52686
-39.9053	-107.249	1.59521
-39.9003	-104.092	1.66357
-39.8945	-94.8288	1.73193
-39.8901	-94.3613	1.800293
-39.8839	-87.9783	1.86865
-39.8764	-80.7209	1.93701
-39.872	-77.235	2.00537
-39.8676	-72.4772	2.07373
-39.8612	-67.3903	2.14209
-39.8543	-65.3688	2.21045
-39.8488	-65.6381	2.27881
-39.8438	-59.8292	2.347168
-39.8377	-56.8021	2.41553
-39.8319	-53.5847	2.48389
-39.8252	-48.2582	2.55225
-39.8218	-44.3882	2.62061
-39.8152	-36.1627	2.68896
-39.8097	-30.9809	2.75732
-39.8033	-28.4471	2.82568
-39.7976	-25.6842	2.894043
-39.7929	-26.0273	2.9624
-39.7866	-19.7437	3.03076
-39.78088	-15.613	3.09912
-39.7754	-15.831	3.16748
-39.769	-8.96292	3.23584
-39.7647	-5.33772	3.3042
-39.758	1.60516	3.37256
-39.7525	7.64112	3.440918
-39.7472	12.0987	3.50928
-39.7413	13.796	3.57764
-39.7363	16.7544	3.646
-39.7301	21.4908	3.71436
-39.7236	23.9889	3.78271
-39.7182	26.6829	3.85107
-39.71302	31.6602	3.91943
-39.7064	33.9682	3.987793
-39.70137	40.2838	4.05615
-39.6959	46.6111	4.12451
-39.6902	51.61356	4.19287
-39.685	52.881	4.26123
-39.6777	57.9479	4.32959
-39.6731	64.3331	4.39795
-39.6669	65.9164	4.46631
-39.6621	65.67202	4.534668
-39.6546	70.4465	4.60303
-39.6504	73.7077	4.67139
-39.6451	78.3502	4.73975
-39.638	86.1576	4.80811
-39.633	89.2577	4.87646
-39.6273	91.3061	4.94482
-39.62204	98.56823	5.01318
-39.6165	105.562	5.081543
-39.6101	103.869	5.1499
-39.6054	106.286	5.21826
-39.5985	112.85	5.28662
-39.59359	113.912	5.35498
-39.5884	115.772	5.42334
-39.5812	123.427	5.4917
-39.576	127.823	5.56006
-39.5702	130.105	5.628418
-39.5651	137.726	5.69678
-39.55949	144.272	5.76514
-39.5535	144.891	5.8335
-39.5483	148.025	5.90186
-39.5421	151.751	5.97021
-39.5356	154.343	6.03857
-39.532	155.88	6.10693
-39.52459	163.055	6.175293
-39.5186	165.986	6.24365
-39.514	168.558	6.31201
-39.5071	176.501	6.38037
-39.5026	184.307	6.44873
-39.49659	185.223	6.51709
-39.4907	187.747	6.58545
-39.4843	189.856	6.65381
-39.4789	192.73	6.722168
-39.4736	194.388	6.79053
-39.4671	199.684	6.85889
-39.4623	202.801	6.92725
-39.4559	205.56	6.99561
-39.4504	215.163	7.06396
-39.445	220.648	7.13232
-39.4397	225.161	7.20068
-39.4341	228.37	7.269043
-39.4287	229.094	7.3374
-39.42271	231.921	7.40576
-39.4167	235.682	7.47412
-39.4119	236.668	7.54248
-39.4043	238.852	7.61084
-39.4006	245.839	7.6792
-39.3946	253.467	7.74756
-39.3875	258.991	7.815918
-39.3838	262.724	7.88428
-39.3761	267.697	7.95264
-39.37088	267.971	8.021
-39.3659	271.604	8.08936
-39.3601	273.981	8.15771
-39.3534	275.757	8.22607
-39.3481	276.377	8.29443
-39.3423	282.472	8.362793
-39.338	290.363	8.43115
-39.3304	293.192	8.49951
-39.3254	299.263	8.56787
-39.3187	304.951	8.63623
-39.3144	306.458	8.70459
-39.3087	309.7626	8.77295
-39.3026	312.784	8.84131
-39.2958	312.5	8.909668
-39.2922	312.535	8.97803
-39.2849	317.72	9.04639
-39.2807	325.921	9.11475
-39.2739	326.871	9.18311
-39.2692	335.275	9.25146
-39.2642	342.1958	9.31982
-39.2577	342.866	9.38818
-39.2516	346.535	9.456543
-39.24538	349.583	9.5249
-39.2408	349.254	9.59326
-39.2347	347.644	9.66162
-39.2291	356.06	9.72998
-39.2231	361.368	9.79834
-39.2182	361.633	9.8667
-39.2117	370.534	9.93506
-39.20575	376.252	10.0034
-39.1999	379.59	10.0718
-39.19508	383.229	10.1401
-39.1891	386.705	10.2085
-39.1836	385.548	10.2769
-39.1784	384.698	10.3452
-39.1711	392.475	10.4136
-39.1666	395.074	10.4819
-39.1604	397.673	10.5503
-39.1542	403.695	10.6187
-39.1486	410.546	10.687
-39.143	415.905	10.7554
-39.138	419.316	10.82373
-39.1321	420.894	10.89209
-39.1266	420.2074	10.9604
-39.1206	421.503	11.0288
-39.1148	426.2305	11.0972
-39.1089	428.546	11.1655
-39.103	433.124	11.2339
-39.098	436.357	11.3022
-39.0912	440.71	11.3706
-39.0863	448.1	11.439
-39.08007	452.556	11.5073
-39.0752	454.716	11.5757
-39.0689	454.339	11.644
-39.0636	457.706	11.7124
-39.058	460.756	11.7808
-39.0521	460.811	11.8491
-39.047	465.602	11.91748
-39.0402	468.695	11.98584
-39.0358	471.8826	12.0542
-39.0292	479.18	12.1226
-39.0235	485.1488	12.1909
-39.0186	485.542	12.2593
-39.01313	487.23	12.3276
-39.007	491.875	12.396
-39.0013	493.763	12.4644
-38.9952	494.6055	12.5327
-38.9902	495.666	12.6011
-38.9845	500.2724	12.6694
-38.9784	500.107	12.7378
-38.9731	507.494	12.8062
-38.9673	513.942	12.8745
-38.9611	512.956	12.9429
-38.9565	516.1131	13.01123
-38.949	523.424	13.07959
-38.9433	522.422	13.1479
-38.9376	520.933	13.2163
-38.93306	525.041	13.2847
-38.9257	525.44	13.353
-38.9217	529.184	13.4214
-38.9155	533.473	13.4897
-38.91003	538.381	13.5581
-38.9024	538.146	13.6265
-38.8985	542.802	13.6948
-38.8923	549.745	13.7632
-38.8875	549.523	13.8315
-38.8812	548.207	13.8999
-38.8756	550.538	13.9683
-38.8709	551.167	14.0366
-38.8641	552.389	14.10498
-38.8593	555.807	14.17334
-38.85276	559.3606	14.2417
-38.8476	559.821	14.3101
-38.8416	563.324	14.3784
-38.8352	569.808	14.4468
-38.8313	570.199	14.5151
-38.8251	570.68	14.5835
-38.8191	571.907	14.6519
-38.8132	571.234	14.7202
-38.8063	572.117	14.7886
-38.8018	572.8468	14.8569
-38.7962	573.822	14.9253
-38.79015	575.1	14.9937
-38.7847	580.046	15.062
-38.7782	584.57	15.1304
-38.77224	584.6051	15.19873
-38.7673	585.669	15.26709
-38.7606	585.955	15.3354
-38.7568	586.262	15.4038
-38.7505	584.002	15.4722
-38.7446	583.501	15.5405
-38.7389	584.071	15.6089
-38.73431	582.545	15.6772
-38.7272	587.983	15.7456
-38.722	591.193	15.814
-38.7161	591.22	15.8823
-38.7109	594.085	15.9507
-38.7037	592.6499	16.019
-38.6989	591.216	16.0874
-38.6937	590.604	16.1558
-38.6879	586.375	16.2241
-38.6825	584.376	16.29248
-38.6759	584.521	16.36084
-38.6704	588.525	16.4292
-38.6643	589.173	16.4976
-38.6595	591.521	16.5659
-38.6532	594.181	16.6343
-38.6472	591.601	16.7026
-38.642	591.679	16.771
-38.6363	590.339	16.8394
-38.6306	584.916	16.9077
-38.6253	580.418	16.9761
-38.6193	582.372	17.0444
-38.6141	585.814	17.1128
-38.6071	584.4541	17.1812
-38.6023	587.102	17.2495
-38.597	588.722	17.3179
-38.591	587.1084	17.38623
-38.5844	587.256	17.45459
-38.5792	589.785	17.5229
-38.5737	581.122	17.5913
-38.5673	576.9801	17.6597
-38.5629	577.788	17.728
-38.5559	579.432	17.7964
-38.5511	577.3374	17.8647
-38.5461	579.613	17.9331
-38.5397	582.629	18.0015
-38.534	583.313	18.0698
-38.5273	583.349	18.1382
-38.5239	582.009	18.2065
-38.5162	577.33	18.2749
-38.5105	573.034	18.3433
-38.50507	575.368	18.4116
-38.49984	575.173	18.47998
-38.4944	572.503	18.54834
-38.488	575.6814	18.6167
-38.4815	575.409	18.6851
-38.4763	577.921	18.7534
-38.4712	578.0177	18.8218
-38.46587	578.3634	18.8901
-38.4593	573.348	18.9585
-38.4545	571.681	19.0269
-38.4482	572.879	19.0952
-38.4419	570.557	19.1636
-38.4378	569.315	19.2319
-38.4304	567.917	19.3003
-38.426	570.419	19.3687
-38.4204	572.962	19.437
-38.4142	574.5293	19.5054
-38.4085	574.635	19.57373
-38.4035	569.866	19.64209
-38.3977	569.977	19.7104
-38.3925	569.457	19.7788
-38.3858	566.522	19.8472
-38.3802	567.135	19.9155
-38.3748	564.807	19.9839
-38.3717	569.956	20.0132

Data Header:			0.254_solid_dimension_typeiv_4545_r0			Time:	40.0183	s	4/13/2019 8:32:51 PM
Data Acquisition:	Timed
Station Name:	ft40.cfg
Test File Name:	monotonic_0.2540_typeiv_solid_4545_dimension.tst
Displacement	Force	Running Time
mm	N	s
-38.3717	572.278	20.0229
-38.3655	564.177	20.0913
-38.3589	562.477	20.1597
-38.3539	566.092	20.228
-38.3476	563.741	20.2964
-38.3423	562.956	20.3647
-38.337	565.993	20.4331
-38.3316	568.378	20.5015
-38.3263	569.5	20.5698
-38.3207	569.006	20.6382
-38.313	567.893	20.7065
-38.3086	561.929	20.7749
-38.3025	560.263	20.8433
-38.2965	563.787	20.9116
-38.2913	561.07	20.97998
-38.2868	559.5213	21.04834
-38.2817	562.645	21.1167
-38.2749	563.464	21.1851
-38.269	565.841	21.2534
-38.2623	566.42	21.3218
-38.2565	565.156	21.3901
-38.2502	561.343	21.4585
-38.2464	561.007	21.5269
-38.2405	560.448	21.5952
-38.2346	557.715	21.6636
-38.2291	557.069	21.7319
-38.2234	558.798	21.8003
-38.2168	560.028	21.8687
-38.2121	562.706	21.937
-38.2062	563.605	22.0054
-38.2012	561.73	22.07373
-38.1945	560.074	22.14209
-38.1881	560.459	22.2104
-38.1837	558.603	22.2788
-38.1779	555.64	22.3472
-38.1721	554.8562	22.4155
-38.1661	554.865	22.4839
-38.1612	555.293	22.5522
-38.1549	558.314	22.6206
-38.1487	560.7149	22.689
-38.1441	558.812	22.7573
-38.1374	559.731	22.8257
-38.1309	560.922	22.894
-38.126	558.405	22.9624
-38.1205	557.609	23.0308
-38.11536	556.251	23.0991
-38.1099	552.005	23.16748
-38.1032	553.669	23.23584
-38.0969	555.893	23.3042
-38.0925	557.273	23.3726
-38.0866	556.034	23.4409
-38.0811	556.858	23.5093
-38.0765	560.852	23.5776
-38.0692	557.108	23.646
-38.0632	555.381	23.7144
-38.0587	557.035	23.7827
-38.0524	552.537	23.8511
-38.0462	552.11	23.9194
-38.0403	553.033	23.9878
-38.03587	552.88	24.0562
-38.0294	552.101	24.1245
-38.02393	555.566	24.1929
-38.0189	559.64	24.26123
-38.0129	555.98	24.32959
-38.0081	555.808	24.3979
-38.0005	554.324	24.4663
-37.9956	551.677	24.5347
-37.9905	549.344	24.603
-37.9839	551.192	24.6714
-37.9785	549.556	24.7397
-37.9726	549.858	24.8081
-37.9673	556.089	24.8765
-37.9614	557.085	24.9448
-37.955	555.729	25.0132
-37.9489	555.51	25.0815
-37.9441	554.748	25.1499
-37.9389	551.989	25.2183
-37.9321	551.391	25.2866
-37.9263	549.229	25.35498
-37.9215	547.54	25.42334
-37.9168	547.735	25.4917
-37.9098	553.187	25.5601
-37.9041	554.852	25.6284
-37.8987	555.453	25.6968
-37.893	556.672	25.7651
-37.8876	552.991	25.8335
-37.8821	552.967	25.9019
-37.8757	550.233	25.9702
-37.8698	548.803	26.0386
-37.8643	546.236	26.1069
-37.858	546.64	26.1753
-37.8531	552.562	26.2437
-37.8473	553.117	26.312
-37.8419	554.087	26.3804
-37.8351	555.245	26.44873
-37.8301	552.775	26.51709
-37.8247	554.0202	26.5854
-37.8192	550.449	26.6538
-37.8134	547.902	26.7222
-37.8084	544.145	26.7905
-37.8017	548.065	26.8589
-37.7975	548.632	26.9272
-37.791	550.302	26.9956
-37.785	553.108	27.064
-37.778	552.574	27.1323
-37.7732	554.032	27.2007
-37.76767	553.91	27.269
-37.7614	552.752	27.3374
-37.7554	545.473	27.4058
-37.7513	543.4577	27.4741
-37.7446	547.222	27.54248
-37.739	545.281	27.61084
-37.7328	548.467	27.6792
-37.7282	551.383	27.7476
-37.7215	551.852	27.8159
-37.716	552.501	27.8843
-37.7107	554.214	27.9526
-37.7043	551.57	28.021
-37.6993	546.187	28.0894
-37.6938	545.203	28.1577
-37.6872	548.211	28.2261
-37.6817	544.679	28.2944
-37.6751	545.928	28.3628
-37.6708	550.165	28.4312
-37.6654	548.995	28.4995
-37.6603	551.3	28.5679
-37.6531	553.2	28.63623
-37.64753	550.099	28.70459
-37.6428	547.325	28.7729
-37.6364	547.41	28.8413
-37.631	547.155	28.9097
-37.6253	544.311	28.978
-37.6197	544.298	29.0464
-37.6138	548.461	29.1147
-37.607	548.242	29.1831
-37.60252	549.774	29.2515
-37.5974	552.925	29.3198
-37.59071	549.915	29.3882
-37.586	546.67	29.4565
-37.5789	549.965	29.5249
-37.5743	548.984	29.5933
-37.5681	546.5462	29.6616
-37.5618	544.975	29.72998
-37.557	545.535	29.79834
-37.5509	547.285	29.8667
-37.5461	548.843	29.9351
-37.5395	551.5531	30.0034
-37.5347	548.997	30.0718
-37.52774	548.195	30.1401
-37.5225	549.584	30.2085
-37.51646	550.148	30.2769
-37.5106	545.291	30.3452
-37.5041	545.094	30.4136
-37.4999	543.811	30.4819
-37.4944	545.752	30.5503
-37.4876	546.78	30.6187
-37.4826	547.72	30.687
-37.477	546.8269	30.7554
-37.4714	548.845	30.82373
-37.4658	551.397	30.89209
-37.4589	548.4	30.9604
-37.4544	546.882	31.0288
-37.4494	545.665	31.0972
-37.44315	540.768	31.1655
-37.4366	543.1	31.2339
-37.4311	545.266	31.3022
-37.4253	544.865	31.3706
-37.42	545.051	31.439
-37.4139	549.05	31.5073
-37.4084	550.167	31.5757
-37.4034	546.784	31.644
-37.3974	549.225	31.7124
-37.3922	544.95	31.7808
-37.38615	540.9375	31.8491
-37.3805	543.836	31.91748
-37.3743	543.626	31.98584
-37.3688	540.9519	32.0542
-37.3625	542.576	32.1226
-37.3575	548.007	32.1909
-37.3514	550.0166	32.2593
-37.3466	549.035	32.3276
-37.3408	549.329	32.396
-37.3351	546.666	32.4644
-37.329	543.112	32.5327
-37.3237	543.304	32.6011
-37.3187	541.987	32.6694
-37.3126	538.856	32.7378
-37.30579	541.826	32.8062
-37.3006	549.064	32.8745
-37.29491	546.537	32.9429
-37.2887	547.876	33.01123
-37.2819	549.892	33.07959
-37.2781	547.374	33.1479
-37.2719	543.769	33.2163
-37.266	544.131	33.2847
-37.2602	542.988	33.353
-37.2552	538.002	33.4214
-37.25108	540.54	33.4897
-37.2432	546.037	33.5581
-37.2377	545.733	33.6265
-37.2314	545.84	33.6948
-37.2264	549.824	33.7632
-37.2206	548.667	33.8315
-37.2141	544.754	33.8999
-37.2089	544.295	33.9683
-37.20406	541.503	34.0366
-37.19873	537.871	34.10498
-37.1919	539.487	34.17334
-37.1856	544.62	34.2417
-37.1806	544.322	34.3101
-37.1752	546.87	34.3784
-37.1692	547.454	34.4468
-37.1635	549.574	34.5151
-37.1573	547.034	34.5835
-37.153	543.888	34.6519
-37.1455	541.112	34.7202
-37.1391	538.84	34.7886
-37.1355	540.926	34.8569
-37.1291	543.405	34.9253
-37.1235	543.341	34.9937
-37.1183	544.659	35.062
-37.1121	545.751	35.1304
-37.1064	548.918	35.19873
-37.1011	549.383	35.26709
-37.0947	546.364	35.3354
-37.0893	540.804	35.4038
-37.0839	540.347	35.4722
-37.0774	541.842	35.5405
-37.0719	540.7677	35.6089
-37.0675	540.562	35.6772
-37.0604	543.904	35.7456
-37.0555	544.831	35.814
-37.0494	548.241	35.8823
-37.0436	548.093	35.9507
-37.0393	544.5014	36.019
-37.0333	541.738	36.0874
-37.027	541.628	36.1558
-37.0206	540.737	36.2241
-37.0168	538.989	36.29248
-37.01	540.1781	36.36084
-37.0041	541.654	36.4292
-36.99831	541.748	36.4976
-36.9931	547.813	36.5659
-36.9863	549.392	36.6343
-36.9811	545.921	36.7026
-36.9747	543.234	36.771
-36.9702	544.473	36.8394
-36.9647	542.094	36.9077
-36.9587	540.171	36.9761
-36.9532	540.847	37.0444
-36.9466	541.978	37.1128
-36.9421	542.42	37.1812
-36.9361	545.023	37.2495
-36.9306	548.276	37.3179
-36.9242	542.967	37.38623
-36.9191	543.96	37.45459
-36.9119	545.743	37.5229
-36.90683	543.315	37.5913
-36.9015	539.192	37.6597
-36.8961	540.447	37.728
-36.8892	541.052	37.7964
-36.8845	540.081	37.8647
-36.87822	544.73	37.9331
-36.8717	545.217	38.0015
-36.8673	541.8537	38.0698
-36.8613	542.7	38.1382
-36.85635	547.927	38.2065
-36.8498	542.531	38.2749
-36.8433	541.511	38.3433
-36.8377	541.1026	38.4116
-36.833	537.821	38.47998
-36.8284	539.8139	38.54834
-36.82169	542.6582	38.6167
-36.8176	543.768	38.6851
-36.8101	541.914	38.7534
-36.8045	544.086	38.8218
-36.7981	546.742	38.8901
-36.7938	543.719	38.9585
-36.788	542.233	39.0269
-36.7819	540.983	39.0952
-36.77597	538.2569	39.1636
-36.7694	539.658	39.2319
-36.7652	540.222	39.3003
-36.7596	540.044	39.3687
-36.7539	540.898	39.437
-36.7478	544.832	39.5054
-36.74147	546.216	39.57373
-36.73674	545.241	39.64209
-36.729	544.465	39.7104
-36.7247	541.245	39.7788
-36.7187	538.8717	39.8472
-36.7145	538.538	39.9155
-36.70816	538.191	39.9839
-36.7061	544.253	40.0132

Data Header:			0.254_solid_dimension_typeiv_4545_r0			Time:	46.8904	s	4/13/2019 8:32:58 PM
Data Acquisition:	Timed
Station Name:	ft40.cfg
Test File Name:	monotonic_0.2540_typeiv_solid_4545_dimension.tst
Displacement	Force	Running Time
mm	N	s
-36.70385	546.4198	40.0229
-36.7019	537.712	40.0522
-36.6997	546.293	40.0815
-36.698	538.4447	40.11084
-36.6949	547.59	40.1401
-36.6923	536.668	40.1694
-36.6904	546.502	40.19873
-36.68837	539.906	40.228
-36.6846	545.721	40.2573
-36.6833	536.36	40.2866
-36.6808	545.966	40.3159
-36.67844	540.816	40.3452
-36.6753	543.141	40.3745
-36.6726	539.455	40.4038
-36.6699	541.457	40.4331
-36.6682	541.2652	40.4624
-36.6656	539.859	40.4917
-36.6633	541.571	40.521
-36.6607	540.997	40.5503
-36.6584	543.7973	40.57959
-36.656	536.352	40.6089
-36.6533	543.895	40.6382
-36.6518	538.755	40.66748
-36.648	544.737	40.6968
-36.6465	539.001	40.7261
-36.6441	544.683	40.7554
-36.6413	539.034	40.7847
-36.6385	543.64	40.814
-36.6375	540.922	40.8433
-36.6339	543.789	40.8726
-36.6318	541.171	40.9019
-36.6284	540.634	40.9312
-36.6271	544.002	40.9604
-36.6238	539.645	40.9897
-36.6214	542.326	41.019
-36.6187	539.773	41.04834
-36.6167	546.693	41.0776
-36.6144	539.162	41.1069
-36.6126	542.944	41.13623
-36.61	538.349	41.1655
-36.6074	544.975	41.1948
-36.6051	539.211	41.2241
-36.6026	540.981	41.2534
-36.5998	541.669	41.2827
-36.5976	542.262	41.312
-36.59441	539.301	41.3413
-36.5924	538.114	41.3706
-36.59042	543.84	41.3999
-36.5874	539.1698	41.4292
-36.5858	545.548	41.4585
-36.5832	538.198	41.4878
-36.5804	545.051	41.51709
-36.57843	536.341	41.5464
-36.5768	542.59	41.5757
-36.5728	538.702	41.60498
-36.5709	544.719	41.6343
-36.56712	538.494	41.6636
-36.5665	543.7981	41.6929
-36.5627	540.218	41.7222
-36.5609	541.281	41.7515
-36.5583	540.897	41.7808
-36.5555	542.439	41.8101
-36.55283	544.359	41.8394
-36.5506	539.343	41.8687
-36.5489	542.849	41.8979
-36.5452	537.227	41.9272
-36.5426	544.316	41.9565
-36.5414	535.546	41.98584
-36.5387	545.813	42.0151
-36.5367	538.552	42.0444
-36.5331	544.652	42.07373
-36.5317	533.7879	42.103
-36.5293	545.975	42.1323
-36.5269	537.34	42.1616
-36.52393	544.205	42.1909
-36.5221	537.057	42.2202
-36.5198	543.603	42.2495
-36.51712	539.647	42.2788
-36.5148	538.579	42.3081
-36.5115	540.882	42.3374
-36.5089	541.793	42.3667
-36.50647	542.49	42.396
-36.5044	536.133	42.4253
-36.5029	544.258	42.45459
-36.4999	536.601	42.4839
-36.49699	544.91	42.5132
-36.4947	536.809	42.54248
-36.4917	545.561	42.5718
-36.4903	536.118	42.6011
-36.4872	543.11	42.6304
-36.48484	538.087	42.6597
-36.483	543.087	42.689
-36.4805	537.976	42.7183
-36.4776	542.011	42.7476
-36.4759	541.0058	42.7769
-36.4727	538.901	42.8062
-36.4704	538.265	42.8354
-36.4686	539.584	42.8647
-36.465	543.259	42.894
-36.4627	536.457	42.92334
-36.4602	540.293	42.9526
-36.4581	536.9187	42.9819
-36.4557	542.612	43.01123
-36.453	535.492	43.0405
-36.4512	542.044	43.0698
-36.4484	539.718	43.0991
-36.4473	540.986	43.1284
-36.4428	536.813	43.1577
-36.4406	537.819	43.187
-36.439	540.41	43.2163
-36.4365	538.37	43.2456
-36.4342	539.447	43.2749
-36.4312	537.141	43.3042
-36.4289	540.9314	43.3335
-36.4261	534.359	43.3628
-36.4233	540.386	43.39209
-36.4218	535.616	43.4214
-36.4179	541.185	43.4507
-36.41584	536.082	43.47998
-36.4136	541.628	43.5093
-36.41209	533.564	43.5386
-36.4086	537.646	43.5679
-36.4079	533.449	43.5972
-36.4054	537.133	43.6265
-36.4022	535.7453	43.6558
-36.3993	531.002	43.6851
-36.3973	534.238	43.7144
-36.395	531.077	43.7437
-36.3925	533.12	43.7729
-36.3898	522.768	43.8022
-36.38644	522.832	43.8315
-36.3825	-25.6357	43.86084
-36.3809	-40.1859	43.8901
-36.3787	-50.3926	43.9194
-36.3762	-37.9122	43.94873
-36.3745	-45.4946	43.978
-36.3723	-38.9813	44.0073
-36.3697	-46.28825	44.0366
-36.368	-39.243	44.0659
-36.3649	-44.763	44.0952
-36.3631	-43.2192	44.1245
-36.3605	-43.0399	44.1538
-36.3579	-41.6111	44.1831
-36.3562	-39.6911	44.2124
-36.3529	-42.6952	44.2417
-36.34927	-38.7821	44.271
-36.34761	-46.2285	44.3003
-36.3454	-39.8065	44.32959
-36.3428	-43.4981	44.3589
-36.3405	-36.4744	44.3882
-36.3383	-46.9917	44.41748
-36.3355	-39.679	44.4468
-36.33419	-45.424	44.4761
-36.3306	-37.9684	44.5054
-36.3281	-45.1245	44.5347
-36.3274	-38.6019	44.564
-36.3246	-42.16087	44.5933
-36.3209	-42.2877	44.6226
-36.3186	-46.6554	44.6519
-36.3162	-41.9195	44.6812
-36.3125	-39.3362	44.7104
-36.3112	-43.9668	44.7397
-36.3082	-40.5941	44.769
-36.3063	-45.3834	44.79834
-36.3045	-39.1863	44.8276
-36.3017	-46.4459	44.8569
-36.2998	-40.478	44.88623
-36.296	-43.5423	44.9155
-36.294	-39.779	44.9448
-36.2925	-45.5071	44.9741
-36.2898	-41.9985	45.0034
-36.2869	-43.4939	45.0327
-36.2848	-42.3218	45.062
-36.282	-42.3752	45.0913
-36.279	-40.728	45.1206
-36.2771	-41.0794	45.1499
-36.2757	-45.1423	45.1792
-36.2722	-40.8331	45.2085
-36.2694	-43.1705	45.2378
-36.2667	-39.2757	45.26709
-36.266	-44.82478	45.2964
-36.2624	-38.9501	45.3257
-36.2587	-44.0596	45.35498
-36.2569	-41.5609	45.3843
-36.2543	-45.1467	45.4136
-36.253	-37.7062	45.4429
-36.2512	-42.9244	45.4722
-36.2475	-43.7771	45.5015
-36.24601	-42.7701	45.5308
-36.2444	-42.6263	45.5601
-36.2414	-41.8299	45.5894
-36.2382	-45.2756	45.6187
-36.2361	-38.899	45.6479
-36.23325	-44.0873	45.6772
-36.2302	-39.6314	45.7065
-36.2285	-47.761	45.73584
-36.2262	-37.7869	45.7651
-36.2246	-45.918	45.7944
-36.2213	-38.5487	45.82373
-36.2184	-46.0112	45.853
-36.217	-37.9214	45.8823
-36.214	-46.685	45.9116
-36.2107	-40.5559	45.9409
-36.2097	-44.8598	45.9702
-36.2071	-40.9424	45.9995
-36.2043	-41.9134	46.0288
-36.2004	-42.4855	46.0581
-36.1993	-39.8528	46.0874
-36.1974	-46.51646	46.1167
-36.195	-39.7965	46.146
-36.1923	-44.57893	46.1753
-36.18866	-36.09409	46.20459
-36.1864	-47.3168	46.2339
-36.1845	-39.4644	46.2632
-36.1821	-45.9346	46.29248
-36.1795	-36.3458	46.3218
-36.17738	-47.2985	46.3511
-36.174	-38.0621	46.3804
-36.1728	-43.7694	46.4097
-36.169	-41.3909	46.439
-36.167	-45.5115	46.4683
-36.1647	-41.6794	46.4976
-36.1638	-40.80024	46.5269
-36.15971	-43.9123	46.5562
-36.1586	-42.6287	46.5854
-36.1552	-43.383	46.6147
-36.1524	-43.421	46.644
-36.1513	-47.4585	46.67334
-36.1476	-42.5965	46.7026
-36.1461	-43.4683	46.7319
-36.1431	-40.8477	46.76123
-36.1403	-46.0568	46.7905
-36.1375	-41.459	46.8198
-36.1356	-44.5631	46.8491
-36.133	-43.2536	46.8784