File: data/processed_data_files/tensile/0.254_hd_uprint_typei_4545_r(3).dat
MTS793|BTW|ENU|1|2|.|/|:|1|0|0|A

Data Header:			0.254_hd_uprint_typei_4545_r0			Time:	20.022	s	4/15/2019 4:08:35 PM
Data Acquisition:	Timed
Station Name:	ft40.cfg
Test File Name:	monotonic_0.2540_typei_hd_4545_uprint.tst
Displacement	Force	Running Time
mm	N	s
13.8169	-156.303	0.0246582
13.8192	-152.722	0.0930176
13.8232	-148.328	0.161377
13.829	-150.538	0.229736
13.83584	-152.323	0.2980957
13.8413	-153.578	0.366455
13.847	-153.982	0.434814
13.8525	-152.0011	0.503174
13.8587	-149.703	0.5715332
13.86424	-147.991	0.639893
13.8701	-144.7692	0.708252
13.87557	-138.952	0.776611
13.8809	-132.073	0.8449707
13.8858	-133.293	0.91333
13.8922	-134.87	0.981689
13.8973	-133.545	1.05005
13.9039	-136.542	1.11841
13.9095	-135.453	1.18677
13.9148	-133.243	1.255127
13.9208	-130.014	1.32349
13.9264	-126.946	1.39185
13.9321	-119.558	1.46021
13.9371	-115.986	1.52856
13.9432	-114.7294	1.59692
13.9492	-111.003	1.66528
13.9545	-112.681	1.73364
13.9611	-113.988	1.802002
13.9669	-114.155	1.87036
13.9721	-113.36	1.93872
13.9781	-114.4939	2.00708
13.9841	-108.639	2.07544
13.9887	-101.338	2.1438
13.9944	-96.5552	2.21216
14.0007	-92.4484	2.28052
14.0061	-89.3495	2.348877
14.0129	-90.0012	2.41724
14.0172	-90.6491	2.4856
14.0228	-90.249	2.55396
14.0295	-89.3596	2.62231
14.0346	-92.1437	2.69067
14.0411	-88.0889	2.75903
14.0464	-79.7257	2.82739
14.0522	-76.6528	2.895752
14.0572	-72.5178	2.96411
14.0624	-67.03421	3.03247
14.0695	-66.1572	3.10083
14.0749	-65.3381	3.16919
14.08	-64.58	3.23755
14.0863	-65.6413	3.30591
14.0918	-68.1911	3.37427
14.0976	-65.7464	3.442627
14.1027	-56.8516	3.51099
14.1085	-54.2358	3.57935
14.11438	-49.4721	3.64771
14.1197	-43.1741	3.71606
14.1254	-39.2324	3.78442
14.13275	-39.8163	3.85278
14.13716	-37.6148	3.92114
14.1433	-37.8631	3.989502
14.1484	-41.2863	4.05786
14.15381	-39.2411	4.12622
14.15922	-32.5134	4.19458
14.1649	-29.1149	4.26294
14.1721	-26.3992	4.3313
14.1775	-18.4844	4.39966
14.1814	-14.63644	4.46802
14.1886	-11.9702	4.536377
14.1947	-12.0755	4.60474
14.2	-10.3864	4.6731
14.2062	-14.6557	4.74146
14.2111	-12.7723	4.80981
14.217	-7.53994	4.87817
14.2223	-4.31286	4.94653
14.2274	-1.21308	5.01489
14.2347	4.55922	5.083252
14.2396	10.88736	5.15161
14.2452	15.3879	5.21997
14.2514	17.6575	5.28833
14.2564	16.2082	5.35669
14.262	14.3542	5.42505
14.2683	16.0542	5.49341
14.2739	19.3201	5.56177
14.2793	21.17271	5.630127
14.2845	25.0872	5.69849
14.2895	32.3752	5.76685
14.2969	35.8052	5.83521
14.30189	42.94	5.90356
14.3081	45.9965	5.97192
14.3135	45.15379	6.04028
14.3201	44.4865	6.10864
14.3253	47.4183	6.177002
14.3304	48.577	6.24536
14.3368	48.3259	6.31372
14.3425	51.5382	6.38208
14.3462	56.7632	6.45044
14.354	63.1933	6.5188
14.359	70.1662	6.58716
14.3647	73.9719	6.65552
14.3698	73.8376	6.723877
14.3775	75.5588	6.79224
14.3827	80.5659	6.8606
14.3886	76.271	6.92896
14.39321	75.4855	6.99731
14.40007	80.3143	7.06567
14.4052	83.4281	7.13403
14.4104	88.9833	7.20239
14.416	96.32856	7.270752
14.4211	103.108	7.33911
14.427	101.584	7.40747
14.434	105.225	7.47583
14.4393	109.534	7.54419
14.4444	108.92	7.61255
14.4512	104.971	7.68091
14.4567	110.309	7.74927
14.4618	112.3754	7.817627
14.4671	116.144	7.88599
14.4726	122.744	7.95435
14.4798	128.259	8.02271
14.4847	129.592	8.09106
14.49	132.9144	8.15942
14.49583	138.846	8.22778
14.5017	138.929	8.29614
14.5071	137.373	8.364502
14.5126	138.435	8.43286
14.5183	138.878	8.50122
14.5251	142.856	8.56958
14.5301	148.118	8.63794
14.5356	153.6622	8.7063
14.5412	156.279	8.77466
14.5478	162.935	8.84302
14.5535	169.017	8.911377
14.5594	169.741	8.97974
14.5641	167.126	9.0481
14.5702	169.289	9.11646
14.57591	167.599	9.18481
14.5816	169.165	9.25317
14.587	174.844	9.32153
14.5933	181.3998	9.38989
14.5993	183.642	9.458252
14.6046	190.474	9.52661
14.6096	197.195	9.59497
14.6158	197.633	9.66333
14.6214	200.011	9.73169
14.6275	199.584	9.80005
14.6318	198.435	9.86841
14.6381	199.315	9.93677
14.6444	202.579	10.0051
14.6509	204.946	10.0735
14.6553	208.527	10.1418
14.66132	218.649	10.2102
14.6668	223.6264	10.2786
14.6722	227.6658	10.3469
14.67802	228.204	10.4153
14.68417	230.937	10.4836
14.68971	227.092	10.552
14.6951	229.318	10.6204
14.7003	230.899	10.6887
14.7065	231.219	10.75708
14.7131	236.152	10.8254
14.7178	243.699	10.8938
14.72451	249.814	10.9622
14.7301	254.409	11.0305
14.7355	258.681	11.0989
14.7412	260.275	11.1672
14.7469	258.965	11.2356
14.7514	259.7597	11.304
14.7581	260.752	11.3723
14.7633	256.105	11.4407
14.7705	262.948	11.509
14.7753	273.221	11.5774
14.7808	276.626	11.6458
14.7869	280.144	11.7141
14.7912	288.7341	11.7825
14.7979	289.821	11.85083
14.8034	289.843	11.9192
14.8101	290.602	11.9875
14.8145	289.316	12.0559
14.8193	285.747	12.1243
14.827	290.014	12.1926
14.83207	298.135	12.261
14.8375	302.1857	12.3293
14.8436	308.972	12.3977
14.8481	315.952	12.4661
14.8543	317.209	12.5344
14.8609	319.376	12.6028
14.8667	320.1459	12.6711
14.8716	317.168	12.7395
14.8773	314.594	12.8079
14.883	315.808	12.8762
14.8896	322.578	12.94458
14.8945	327.101	13.0129
14.9006	330.593	13.0813
14.9064	340.635	13.1497
14.9125	344.062	13.218
14.9177	347.1131	13.2864
14.9237	348.166	13.3547
14.9283	346.84	13.4231
14.9335	343.477	13.4915
14.9402	344.611	13.5598
14.9458	350.492	13.6282
14.9518	352.085	13.6965
14.9581	356.249	13.7649
14.9622	363.733	13.8333
14.9685	370.197	13.9016
14.9757	375.393	13.97
14.9801	377.562	14.03833
14.9855	375.809	14.1067
14.991	373.797	14.175
14.9963	373.8754	14.2434
15.0035	376.773	14.3118
15.009	378.953	14.3801
15.0144	381.5303	14.4485
15.018	389.2587	14.5168
15.0255	394.641	14.5852
15.0312	401.992	14.6536
15.0377	404.017	14.7219
15.0429	401.287	14.7903
15.0491	401.874	14.8586
15.0539	403.7655	14.927
15.0607	403.011	14.9954
15.0654	404.532	15.0637
15.0705	407.592	15.13208
15.076	411.609	15.2004
15.0822	418.703	15.2688
15.0881	426.555	15.3372
15.0932	431.444	15.4055
15.0999	428.4303	15.4739
15.1047	431.059	15.5422
15.11219	432.735	15.6106
15.1164	432.227	15.679
15.1225	430.808	15.7473
15.12759	434.164	15.8157
15.134	435.623	15.884
15.1397	441.77	15.9524
15.1448	448.581	16.0208
15.1509	454.361	16.0891
15.1567	456.036	16.1575
15.1625	458.1348	16.22583
15.168	461.942	16.2942
15.1741	458.095	16.3625
15.1791	458.047	16.4309
15.1859	459.258	16.4993
15.1905	460.666	16.5676
15.1965	463.87	16.636
15.202	471.28	16.7043
15.2078	477.244	16.7727
15.2137	479.0076	16.8411
15.2186	486.6008	16.9094
15.2247	490.953	16.9778
15.2313	486.653	17.0461
15.2361	485.922	17.1145
15.2423	487.573	17.1829
15.2481	485.779	17.2512
15.25401	487.954	17.31958
15.2595	494.219	17.3879
15.2641	499.4574	17.4563
15.2707	503.962	17.5247
15.2761	509.023	17.593
15.2824	516.23	17.6614
15.2874	512.448	17.7297
15.2926	512.39	17.7981
15.29819	512.11	17.8665
15.3052	510.854	17.9348
15.3111	513.3465	18.0032
15.316	515.0672	18.0715
15.3218	520.304	18.1399
15.3283	527.25	18.2083
15.3326	533.162	18.2766
15.3378	539.46	18.345
15.345	541.303	18.41333
15.3506	540.2998	18.4817
15.3562	536.492	18.55
15.3613	536.713	18.6184
15.3673	538.453	18.6868
15.3737	539.628	18.7551
15.3789	541.806	18.8235
15.3838	547.6123	18.8918
15.3904	556.12	18.9602
15.3953	560.585	19.0286
15.4006	563.404	19.0969
15.4076	566.553	19.1653
15.4131	563.93	19.2336
15.4185	561.7998	19.302
15.4249	563.357	19.3704
15.4293	562.593	19.4387
15.4355	561.7561	19.50708
15.4409	567.124	19.5754
15.4473	579.738	19.6438
15.45338	580.338	19.7122
15.4584	585.273	19.7805
15.4639	589.674	19.8489
15.4695	590.001	19.9172
15.476	586.867	19.9856
15.4774	587.551	20.0149

Data Header:			0.254_hd_uprint_typei_4545_r0			Time:	40.0203	s	4/15/2019 4:08:55 PM
Data Acquisition:	Timed
Station Name:	ft40.cfg
Test File Name:	monotonic_0.2540_typei_hd_4545_uprint.tst
Displacement	Force	Running Time
mm	N	s
15.4783	590.241	20.0247
15.4846	597.521	20.093
15.4907	599.999	20.1614
15.4965	600.46	20.2297
15.5019	598.277	20.2981
15.5075	597.687	20.3665
15.5132	595.7251	20.4348
15.5181	597.974	20.5032
15.5241	601.599	20.5715
15.5298	605.141	20.6399
15.5355	609.885	20.7083
15.5416	618.759	20.7766
15.547	621.394	20.845
15.5534	623.2981	20.91333
15.5584	623.944	20.9817
15.5648	620.876	21.05
15.5697	619.3927	21.1184
15.5756	620.859	21.1868
15.5806	623.036	21.2551
15.58644	623.95	21.3235
15.5929	627.875	21.3918
15.5991	639.498	21.4602
15.6039	642.736	21.5286
15.60982	643.234	21.5969
15.616	648.041	21.6653
15.6218	644.567	21.7336
15.627	641.85	21.802
15.6326	643.171	21.8704
15.6382	643.933	21.9387
15.64413	644.244	22.00708
15.6496	645.324	22.0754
15.6561	658.403	22.1438
15.6617	663.76	22.2122
15.6659	664.89	22.2805
15.6731	668.2702	22.3489
15.67805	668.9621	22.4172
15.6833	665.034	22.4856
15.6889	667.067	22.554
15.6946	663.67	22.6223
15.7015	662.372	22.6907
15.7063	664.751	22.759
15.7124	674.344	22.8274
15.7177	679.403	22.8958
15.724	682.957	22.9641
15.7297	688.786	23.0325
15.7349	690.0874	23.10083
15.7411	688.409	23.1692
15.7467	685.955	23.2375
15.7514	686.174	23.3059
15.7577	681.681	23.3743
15.7636	682.231	23.4426
15.7696	691.419	23.511
15.7745	696.436	23.5793
15.7801	701.458	23.6477
15.7863	707.701	23.7161
15.792	710.098	23.7844
15.79803	710.428	23.8528
15.8041	707.347	23.9211
15.8087	706.636	23.9895
15.8148	701.871	24.0579
15.8193	703.698	24.1262
15.8259	707.65	24.19458
15.8324	711.399	24.2629
15.8377	718.1474	24.3313
15.84376	723.439	24.3997
15.8493	725.59	24.468
15.8561	730.576	24.5364
15.8603	731.1886	24.6047
15.8656	725.4931	24.6731
15.8714	723.688	24.7415
15.8773	722.541	24.8098
15.884	724.031	24.8782
15.8893	726.6	24.9465
15.8936	733.161	25.0149
15.899	738.961	25.0833
15.9067	743.456	25.1516
15.9111	746.999	25.22
15.9175	747.845	25.28833
15.9231	742.367	25.3567
15.9288	740.3717	25.425
15.9338	743.171	25.4934
15.9408	741.819	25.5618
15.9463	740.618	25.6301
15.9503	746.472	25.6985
15.9573	752.01	25.7668
15.9624	756.0235	25.8352
15.9685	762.456	25.9036
15.9753	765.037	25.9719
15.9804	762.624	26.0403
15.9865	759.299	26.1086
15.9915	760.9342	26.177
15.99711	757.72	26.2454
16.0032	755.48	26.3137
16.0083	759.928	26.38208
16.0147	763.825	26.4504
16.021	767.72	26.5188
16.0256	775.189	26.5872
16.0318	779.95	26.6555
16.0367	777.259	26.7239
16.0426	774.555	26.7922
16.0486	779.702	26.8606
16.0538	774.402	26.929
16.0606	770.653	26.9973
16.065	773.142	27.0657
16.072	775.683	27.134
16.0776	779.001	27.2024
16.0839	784.457	27.2708
16.0892	792.137	27.3391
16.0934	790.86	27.4075
16.1006	791.376	27.47583
16.1054	792.469	27.5442
16.1115	790.999	27.6125
16.1171	784.617	27.6809
16.1232	786.498	27.7493
16.1285	786.874	27.8176
16.1335	789.467	27.886
16.14	793.333	27.9543
16.1458	799.457	28.0227
16.15159	801.535	28.0911
16.1569	803.423	28.1594
16.1626	808.673	28.2278
16.1686	802.018	28.2961
16.1737	799.073	28.3645
16.17857	798.524	28.4329
16.1842	796.221	28.5012
16.1901	799.342	28.56958
16.1964	802.416	28.6379
16.20236	806.718	28.7063
16.2081	810.47	28.7747
16.21488	814.0318	28.843
16.2191	818.351	28.9114
16.2249	816.422	28.9797
16.2304	813.373	29.0481
16.2371	810.3894	29.1165
16.241	805.52	29.1848
16.2481	809.169	29.2532
16.2534	810.569	29.3215
16.2598	813.242	29.3899
16.2648	816.006	29.4583
16.2701	823.64	29.5266
16.2765	826.763	29.595
16.28233	824.83	29.66333
16.2873	825.865	29.7317
16.2934	820.962	29.8
16.2994	817.7113	29.8684
16.3048	816.482	29.9368
16.3109	818.498	30.0051
16.3168	818.092	30.0735
16.3218	821.534	30.1418
16.3277	829.771	30.2102
16.3331	833.873	30.2786
16.3396	832.947	30.3469
16.3457	834.243	30.4153
16.3508	833.312	30.4836
16.3564	827.215	30.552
16.362	826.411	30.6204
16.3682	826.336	30.6887
16.37396	824.024	30.75708
16.3797	824.089	30.8254
16.3857	834.957	30.8938
16.3899	840.591	30.9622
16.3963	839.97	31.0305
16.4022	840.916	31.0989
16.4076	841.687	31.1672
16.4115	836.146	31.2356
16.41843	834.019	31.304
16.425	833.197	31.3723
16.4295	828.613	31.4407
16.4364	829.536	31.509
16.4415	838.343	31.5774
16.4466	841.7829	31.6458
16.453	844.846	31.7141
16.4579	848.58	31.7825
16.4645	847.83	31.85083
16.47	846.032	31.9192
16.4759	840.9447	31.9875
16.4808	839.104	32.0559
16.4876	834.225	32.1243
16.4932	833.106	32.1926
16.4987	839.7486	32.261
16.503	843.879	32.3293
16.5103	848.159	32.3977
16.5167	851.863	32.4661
16.52066	854.493	32.5344
16.52733	853.153	32.6028
16.5329	851.084	32.6711
16.5379	844.894	32.7395
16.544	840.7298	32.8079
16.5501	838.279	32.8762
16.5552	843.179	32.94458
16.5609	845.095	33.0129
16.5676	848.855	33.0813
16.57275	854.075	33.1497
16.5781	857.602	33.218
16.5841	858.616	33.2864
16.5894	856.988	33.3547
16.59551	850.741	33.4231
16.6009	846.946	33.4915
16.6071	843.881	33.5598
16.6133	847.23	33.6282
16.6185	846.204	33.6965
16.62417	850.09	33.7649
16.6299	855.438	33.8333
16.636	857.6413	33.9016
16.6408	862.358	33.97
16.6456	862.233	34.03833
16.6529	856.974	34.1067
16.6579	854.339	34.175
16.6634	850.1084	34.2434
16.6696	849.173	34.3118
16.6749	845.714	34.3801
16.6812	852.354	34.4485
16.6866	856.246	34.5168
16.6928	857.665	34.5852
16.69816	863.702	34.6536
16.703	865.236	34.7219
16.7092	862.152	34.7903
16.7148	857.047	34.8586
16.7207	857.044	34.927
16.7268	853.648	34.9954
16.7313	848.8501	35.0637
16.738	854.234	35.13208
16.7436	855.565	35.2004
16.7491	857.291	35.2688
16.7549	864.938	35.3372
16.7603	868.212	35.4055
16.7657	864.356	35.4739
16.7721	862.399	35.5422
16.77833	863.308	35.6106
16.7834	858.17	35.679
16.78956	853.041	35.7473
16.7954	854.089	35.8157
16.80052	854.377	35.884
16.8054	857.762	35.9524
16.812	863.224	36.0208
16.8181	867.86	36.0891
16.8226	866.956	36.1575
16.8298	866.242	36.22583
16.8351	866.449	36.2942
16.8401	863.236	36.3625
16.8461	856.389	36.4309
16.85273	853.926	36.4993
16.8578	853.508	36.5676
16.8631	856.399	36.636
16.8681	859.626	36.7043
16.8744	863.633	36.7727
16.8803	863.297	36.8411
16.8855	863.749	36.9094
16.8909	866.384	36.9778
16.8973	862.087	37.0461
16.9029	856.438	37.1145
16.9096	854.022	37.1829
16.91478	851.075	37.2512
16.9201	852.164	37.31958
16.9261	854.372	37.3879
16.9315	858.448	37.4563
16.937	860.1662	37.5247
16.9427	864.273	37.593
16.9491	865.625	37.6614
16.9547	862.027	37.7297
16.9595	859.425	37.7981
16.9658	854.379	37.8665
16.9706	850.13	37.9348
16.9773	851.4021	38.0032
16.983	852.9209	38.0715
16.98822	854.544	38.1399
16.9959	856.231	38.2083
17.0005	863.018	38.2766
17.0057	865.7948	38.345
17.011	864.608	38.41333
17.0164	863.621	38.4817
17.0223	858.04	38.55
17.0284	850.973	38.6184
17.0353	850.435	38.6868
17.0393	852.278	38.7551
17.0451	850.278	38.8235
17.05143	853.054	38.8918
17.0567	862.247	38.9602
17.0627	865.1319	39.0286
17.0682	863.491	39.0969
17.0738	864.469	39.1653
17.0796	861.177	39.2336
17.0852	854.929	39.302
17.0909	851.654	39.3704
17.0972	851.638	39.4387
17.102	846.604	39.50708
17.108	849.1239	39.5754
17.1132	857.61	39.6438
17.1191	860.564	39.7122
17.1253	861.5827	39.7805
17.1313	865.223	39.8489
17.1363	862.235	39.9172
17.1414	856.939	39.9856
17.145	853.862	40.0149

Data Header:			0.254_hd_uprint_typei_4545_r0			Time:	45.4343	s	4/15/2019 4:09:00 PM
Data Acquisition:	Timed
Station Name:	ft40.cfg
Test File Name:	monotonic_0.2540_typei_hd_4545_uprint.tst
Displacement	Force	Running Time
mm	N	s
17.1454	857.307	40.0247
17.14752	862.749	40.0442
17.1489	847.598	40.0637
17.1493	857.326	40.0833
17.15181	863.964	40.1028
17.1526	851.248	40.1223
17.155	853.806	40.1418
17.1567	866.617	40.1614
17.1581	851.267	40.1809
17.1597	853.004	40.2004
17.1623	864.605	40.22
17.1637	854.5528	40.2395
17.1651	845.981	40.259
17.1667	862.507	40.2786
17.1679	857.815	40.2981
17.1696	847.8349	40.3176
17.1717	859.701	40.3372
17.1731	860.425	40.3567
17.1749	847.0495	40.3762
17.1762	857.617	40.3958
17.1782	862.255	40.4153
17.1802	847.437	40.4348
17.1809	854.541	40.4543
17.183	860.884	40.4739
17.1854	851.305	40.4934
17.1853	849.436	40.5129
17.1885	863.858	40.5325
17.1904	855.304	40.552
17.1907	849.3595	40.5715
17.1928	857.771	40.5911
17.1939	858.018	40.6106
17.1955	847.272	40.6301
17.1975	860.015	40.6497
17.1997	859.982	40.6692
17.2006	847.903	40.6887
17.2027	854.246	40.7083
17.2041	865.019	40.7278
17.2061	847.594	40.7473
17.2073	853.662	40.7668
17.209	862.962	40.7864
17.2113	852.634	40.8059
17.2118	847.737	40.8254
17.2148	863.851	40.845
17.2158	853.85	40.8645
17.2172	848.331	40.884
17.2182	862.8385	40.9036
17.2194	857.935	40.9231
17.2222	843.588	40.9426
17.2228	860.424	40.9622
17.22579	860.114	40.9817
17.2272	847.958	41.0012
17.229	856.249	41.0208
17.2299	860.251	41.0403
17.2317	847.298	41.0598
17.2335	853.32	41.0793
17.2356	862.652	41.0989
17.2365	848.717	41.1184
17.2379	851.975	41.1379
17.2394	860.986	41.1575
17.2415	853.322	41.177
17.2426	844.87	41.1965
17.24489	862.282	41.2161
17.2462	857.143	41.2356
17.2482	847.985	41.2551
17.2492	854.719	41.2747
17.2516	858.892	41.2942
17.2535	844.57	41.3137
17.2533	857.412	41.3333
17.2572	860.461	41.3528
17.2569	847.438	41.3723
17.2593	848.953	41.3918
17.2611	863.11	41.4114
17.2625	848.247	41.4309
17.2642	849.435	41.4504
17.2659	859.815	41.47
17.2675	852.084	41.4895
17.2684	844.069	41.509
17.2717	859.7265	41.5286
17.273	853.744	41.5481
17.2742	846.403	41.5676
17.2764	858.004	41.5872
17.2776	857.177	41.6067
17.279	841.3573	41.6262
17.28157	853.3277	41.6458
17.282	860.673	41.6653
17.28336	845.7937	41.6848
17.2859	850.944	41.7043
17.2871	857.362	41.7239
17.2887	847.107	41.7434
17.29071	848.214	41.7629
17.2917	859.245	41.7825
17.2938	847.826	41.802
17.2951	844.957	41.8215
17.2964	855.91	41.8411
17.2981	855.648	41.8606
17.2994	841.357	41.8801
17.3009	855.188	41.8997
17.3031	855.544	41.9192
17.305	844.811	41.9387
17.3063	848.148	41.9583
17.3088	859.521	41.9778
17.3093	842.044	41.9973
17.3109	847.6098	42.0168
17.3136	859.2674	42.0364
17.3142	847.306	42.0559
17.3173	840.0675	42.0754
17.3176	857.808	42.095
17.3194	846.628	42.1145
17.32126	840.7323	42.134
17.32336	853.937	42.1536
17.3247	848.132	42.1731
17.32618	837.379	42.1926
17.32789	852.839	42.2122
17.3297	850.321	42.2317
17.3318	835.166	42.2512
17.3329	845.689	42.2708
17.3342	851.448	42.2903
17.3364	836.933	42.3098
17.3377	842.698	42.3293
17.3401	852.311	42.3489
17.3403	839.107	42.3684
17.34178	838.123	42.3879
17.3433	846.701	42.4075
17.3449	838.978	42.427
17.3465	832.983	42.4465
17.3486	848.996	42.4661
17.3491	841.038	42.4856
17.3523	831.692	42.5051
17.3537	840.219	42.5247
17.3553	844.9505	42.5442
17.357	827.8667	42.5637
17.359	837.182	42.5833
17.3603	843.1	42.6028
17.362	829.512	42.6223
17.3643	828.578	42.6418
17.3652	842.616	42.6614
17.367	825.864	42.6809
17.3681	826.5423	42.7004
17.3707	839.717	42.72
17.37258	828.576	42.7395
17.374	818.528	42.759
17.3753	836.4292	42.7786
17.3757	830.15	42.7981
17.37838	818.184	42.8176
17.3803	830.392	42.8372
17.3819	830.146	42.8567
17.3832	815.655	42.8762
17.3845	828.049	42.8958
17.3857	831.113	42.9153
17.3869	814.95	42.9348
17.3898	820.34	42.9543
17.3916	829.812	42.9739
17.39217	817.959	42.9934
17.3947	812.324	43.0129
17.39724	826.289	43.0325
17.3975	814.259	43.052
17.3988	807.401	43.0715
17.4011	812.444	43.0911
17.4028	808.429	43.1106
17.4036	792.7309	43.1301
17.4066	801.628	43.1497
17.40764	795.178	43.1692
17.4091	774.929	43.1887
17.41695	-111.56	43.2083
17.4169	-39.3166	43.2278
17.4174	-57.8399	43.2473
17.417	-50.83997	43.2668
17.41852	-39.6222	43.2864
17.4204	-50.6021	43.3059
17.422	-55.7286	43.3254
17.4232	-37.2393	43.345
17.4255	-50.6369	43.3645
17.4258	-54.143	43.384
17.4278	-39.2383	43.4036
17.4287	-46.1445	43.4231
17.4307	-59.5396	43.4426
17.4326	-43.3662	43.4622
17.4336	-41.4503	43.4817
17.43578	-55.7333	43.5012
17.4373	-46.2748	43.5208
17.4389	-41.59	43.5403
17.4401	-55.5894	43.5598
17.44261	-47.7884	43.5793
17.4445	-38.7305	43.5989
17.4458	-52.0723	43.6184
17.44663	-50.2114	43.6379
17.4481	-41.39983	43.6575
17.4496	-48.07972	43.677
17.45113	-55.46162	43.6965
17.45336	-41.1571	43.7161
17.4549	-46.3384	43.7356
17.4565	-53.2902	43.7551
17.4583	-46.6552	43.7747
17.45985	-41.4733	43.7942
17.4626	-56.5802	43.8137
17.4634	-45.414	43.8333
17.4642	-40.4212	43.8528
17.4665	-51.8229	43.8723
17.4689	-52.48315	43.8918
17.4697	-38.8928	43.9114
17.4713	-50.282	43.9309
17.4721	-50.8674	43.9504
17.4747	-39.7991	43.97
17.47714	-47.55267	43.9895
17.4776	-55.3581	44.009
17.4789	-38.1472	44.0286
17.4809	-46.461	44.0481
17.482	-55.4721	44.0676
17.4847	-41.8026	44.0872
17.4863	-42.4433	44.1067
17.4868	-56.298	44.1262
17.4886	-46.3635	44.1458
17.4913	-41.5848	44.1653
17.4923	-53.2004	44.1848
17.4943	-47.4541	44.2043
17.4954	-43.5213	44.2239
17.4972	-51.9576	44.2434
17.4976	-51.46933	44.2629
17.5004	-37.8896	44.2825
17.5011	-49.2546	44.302
17.5043	-52.1948	44.3215
17.50584	-43.5904	44.3411
17.5071	-41.9	44.3606
17.508	-53.4417	44.3801
17.5105	-42.7384	44.3997
17.5115	-43.6744	44.4192
17.5129	-51.6753	44.4387
17.5159	-48.01004	44.4583
17.5173	-40.0059	44.4778
17.51893	-54.6899	44.4973
17.52	-47.6999	44.5168
17.5217	-37.10648	44.5364
17.52268	-49.8696	44.5559
17.5255	-54.9335	44.5754
17.527	-38.16095	44.595
17.529	-48.1119	44.6145
17.52932	-52.8103	44.634
17.5313	-41.6255	44.6536
17.5327	-45.6942	44.6731
17.5353	-55.8393	44.6926
17.5363	-42.1593	44.7122
17.5381	-43.5358	44.7317
17.539	-55.6957	44.7512
17.5409	-44.6495	44.7708
17.5427	-42.9175	44.7903
17.5434	-55.61311	44.8098
17.5458	-49.1037	44.8293
17.54752	-41.8147	44.8489
17.5504	-52.4298	44.8684
17.5498	-50.4992	44.8879
17.55282	-42.5562	44.9075
17.554	-49.0306	44.927
17.5566	-53.6	44.9465
17.5568	-38.6995	44.9661
17.5591	-46.7193	44.9856
17.5607	-54.4118	45.0051
17.5618	-47.9623	45.0247
17.5639	-42.3774	45.0442
17.5661	-55.5169	45.0637
17.5665	-45.879	45.0833
17.5685	-41.3548	45.1028
17.5707	-52.51424	45.1223
17.5715	-50.5587	45.1418
17.5738	-40.294	45.1614
17.5755	-51.9973	45.1809
17.5786	-49.81921	45.2004
17.5794	-39.4978	45.22
17.5797	-47.135	45.2395
17.5822	-56.77887	45.259
17.5843	-40.368	45.2786
17.5858	-45.0951	45.2981
17.58754	-54.3551	45.3176
17.58843	-44.1035	45.3372
17.5907	-44.6855	45.3567
17.5919	-55.4192	45.3762
17.5935	-44.167	45.3958
17.594	-39.6561	45.4153
17.596	-50.7237	45.425