File: data/processed_data_files/tensile/0.254_hd_dimension_typeiv_090_r(8).dat
MTS793|BTW|ENU|1|2|.|/|:|1|0|0|A

Data Header:			0.254_hd_dimension_typeiv_090_r0			Time:	20.0181	s	4/14/2019 12:37:12 AM
Data Acquisition:	Timed
Station Name:	ft40.cfg
Test File Name:	monotonic_0.2540_typeiv_hd_090_dimension.tst
Displacement	Force	Running Time
mm	N	s
-40.0405	-276.887	0.0227051
-40.0411	-273.852	0.0910645
-40.0335	-273.5676	0.159424
-40.0285	-269.805	0.2277832
-40.023	-260.711	0.296143
-40.0174	-260.721	0.364502
-40.0113	-258.372	0.432861
-40.0066	-255.716	0.5012207
-40.00045	-254.876	0.56958
-39.9955	-251.857	0.637939
-39.9895	-247.762	0.706299
-39.9832	-244.471	0.7746582
-39.9778	-242.178	0.843018
-39.9721	-233.979	0.911377
-39.966	-227.615	0.979736
-39.9599	-225.564	1.0481
-39.9549	-222.573	1.11646
-39.9499	-220.363	1.18481
-39.9434	-219.242	1.25317
-39.9379	-216.968	1.32153
-39.9312	-212.16	1.38989
-39.9264	-210.149	1.458252
-39.921	-208.166	1.52661
-39.9153	-200.6834	1.59497
-39.90905	-195.904	1.66333
-39.9037	-192.068	1.73169
-39.8964	-187.675	1.80005
-39.8922	-186.859	1.86841
-39.8872	-184.606	1.93677
-39.8798	-180.277	2.005127
-39.8754	-179.113	2.07349
-39.8693	-178.537	2.14185
-39.8649	-174.655	2.21021
-39.8581	-166.64	2.27856
-39.8531	-162.339	2.34692
-39.8471	-159.9967	2.41528
-39.842	-154.148	2.48364
-39.8351	-152.923	2.552002
-39.82967	-149.002	2.62036
-39.8251	-145.924	2.68872
-39.8177	-144.2159	2.75708
-39.8124	-145.81	2.82544
-39.8074	-142.251	2.8938
-39.801	-133.225	2.96216
-39.7956	-130.642	3.03052
-39.7892	-124.168	3.098877
-39.78455	-118.678	3.16724
-39.7784	-114.899	3.2356
-39.7722	-113.927	3.30396
-39.7674	-111.185	3.37231
-39.7614	-108.992	3.44067
-39.7551	-111.112	3.50903
-39.7499	-106.192	3.57739
-39.7446	-99.5511	3.645752
-39.7383	-97.6097	3.71411
-39.7333	-94.4305	3.78247
-39.7264	-86.1601	3.85083
-39.72131	-82.3039	3.91919
-39.7154	-79.127	3.98755
-39.7098	-74.83477	4.05591
-39.7036	-73.6356	4.12427
-39.6994	-76.561	4.192627
-39.6931	-73.1357	4.26099
-39.6869	-66.7633	4.32935
-39.6813	-65.1584	4.39771
-39.67577	-60.1039	4.46606
-39.6706	-53.08535	4.53442
-39.6641	-48.9407	4.60278
-39.6599	-45.9304	4.67114
-39.6539	-41.3987	4.739502
-39.6482	-41.7271	4.80786
-39.64254	-41.8355	4.87622
-39.6355	-39.4742	4.94458
-39.6307	-34.2574	5.01294
-39.6232	-33.1425	5.0813
-39.61797	-29.7564	5.14966
-39.6136	-20.22784	5.21802
-39.6078	-18.075	5.286377
-39.6025	-12.6716	5.35474
-39.5958	-7.63535	5.4231
-39.5902	-7.10529	5.49146
-39.5839	-7.95078	5.55981
-39.5797	-4.34814	5.62817
-39.5723	-1.61531	5.69653
-39.5683	-0.438562	5.76489
-39.5617	4.17469	5.833252
-39.55621	9.14325	5.90161
-39.5519	14.2406	5.96997
-39.5447	20.6539	6.03833
-39.5399	24.7082	6.10669
-39.534	27.0916	6.17505
-39.528	26.263	6.24341
-39.5226	30.4528	6.31177
-39.517	31.4016	6.380127
-39.511	35.1548	6.44849
-39.5051	37.41748	6.51685
-39.5006	42.6712	6.58521
-39.4934	47.1247	6.65356
-39.48772	52.9711	6.72192
-39.4829	57.48938	6.79028
-39.4771	59.4058	6.85864
-39.472	61.9066	6.927002
-39.4652	66.0994	6.99536
-39.45948	67.056	7.06372
-39.4534	68.3327	7.13208
-39.4483	70.422	7.20044
-39.4436	72.6084	7.2688
-39.4372	79.7697	7.33716
-39.4303	83.9943	7.40552
-39.4263	89.1671	7.473877
-39.42	90.4935	7.54224
-39.414	95.1981	7.6106
-39.4084	99.9762	7.67896
-39.4024	100.635	7.74731
-39.3982	101.345	7.81567
-39.39127	104.339	7.88403
-39.3864	103.399	7.95239
-39.3812	110.864	8.020752
-39.3748	114.995	8.08911
-39.3687	120.492	8.15747
-39.3628	121.4257	8.22583
-39.3576	128.146	8.29419
-39.35141	131.665	8.36255
-39.3461	131.228	8.43091
-39.3394	134.145	8.49927
-39.3334	138.822	8.567627
-39.32864	138.0639	8.63599
-39.3223	141.478	8.70435
-39.3186	146.852	8.77271
-39.3109	149.407	8.84106
-39.3056	150.327	8.90942
-39.301	159.3	8.97778
-39.29446	166.099	9.04614
-39.289	164.351	9.114502
-39.2831	167.186	9.18286
-39.27755	171.157	9.25122
-39.2719	169.699	9.31958
-39.26601	172.411	9.38794
-39.2603	178.601	9.4563
-39.2543	179.754	9.52466
-39.2494	181.338	9.59302
-39.2433	189.273	9.661377
-39.2373	196.65	9.72974
-39.2319	197.831	9.7981
-39.2257	199.714	9.86646
-39.2197	200.685	9.93481
-39.2147	202.554	10.0032
-39.2085	205.104	10.0715
-39.203	207.355	10.1399
-39.1978	209.084	10.2083
-39.191	212.189	10.2766
-39.1857	220.707	10.345
-39.18	226.197	10.41333
-39.1746	227.269	10.4817
-39.1688	231.882	10.55
-39.1633	233.782	10.6184
-39.1582	234.578	10.6868
-39.1518	236.603	10.7551
-39.1469	238.298	10.8235
-39.1407	238.578	10.8918
-39.1355	240.1	10.9602
-39.1298	248.828	11.0286
-39.1237	253.746	11.0969
-39.1172	257.518	11.1653
-39.1132	261.891	11.2336
-39.1069	264.168	11.302
-39.1006	267.62	11.3704
-39.0947	266.607	11.4387
-39.0894	269.1221	11.50708
-39.0846	268.079	11.5754
-39.0772	271.22	11.6438
-39.073	277.586	11.7122
-39.0666	282.021	11.7805
-39.0598	285.392	11.8489
-39.0544	288.241	11.9172
-39.0502	292.6651	11.9856
-39.0442	296.736	12.054
-39.038	296.68	12.1223
-39.0333	296.139	12.1907
-39.02702	294.586	12.259
-39.0218	298.017	12.3274
-39.0152	303.958	12.3958
-39.0096	308.177	12.4641
-39.0039	312.461	12.5325
-38.9982	316.238	12.60083
-38.9939	319.267	12.6692
-38.9865	323.912	12.7375
-38.9802	324.05	12.8059
-38.9764	323.5647	12.8743
-38.9699	323.129	12.9426
-38.9629	327.195	13.011
-38.9598	330.172	13.0793
-38.953	331.422	13.1477
-38.9465	337.068	13.2161
-38.9421	340.824	13.2844
-38.936	343.883	13.3528
-38.9301	348.097	13.4211
-38.9238	350.039	13.4895
-38.9187	347.654	13.5579
-38.9137	348.379	13.6262
-38.9074	351.262	13.69458
-38.9018	353.038	13.7629
-38.8958	355.447	13.8313
-38.8911	359.687	13.8997
-38.8847	363.479	13.968
-38.8785	367.6813	14.0364
-38.8736	373.019	14.1047
-38.8672	375.521	14.1731
-38.86174	371.117	14.2415
-38.8554	371.06	14.3098
-38.8498	376.733	14.3782
-38.8447	375.666	14.4465
-38.83881	376.282	14.5149
-38.8334	379.161	14.5833
-38.8275	383.284	14.6516
-38.8217	386.809	14.72
-38.8159	392.363	14.78833
-38.8113	395.7403	14.8567
-38.8053	393.587	14.925
-38.7991	393.435	14.9934
-38.7933	400.064	15.0618
-38.7876	398.318	15.1301
-38.7818	395.392	15.1985
-38.7754	398.8324	15.2668
-38.7698	401.382	15.3352
-38.7644	404.941	15.4036
-38.7594	411.395	15.4719
-38.7529	412.919	15.5403
-38.7479	412.563	15.6086
-38.7418	412.595	15.677
-38.7375	416.985	15.7454
-38.7305	416.479	15.8137
-38.725	414.198	15.88208
-38.7203	417.884	15.9504
-38.7137	416.168	16.0188
-38.7086	418.095	16.0872
-38.7026	423.337	16.1555
-38.69651	425.698	16.2239
-38.6912	425.944	16.2922
-38.6851	429.623	16.3606
-38.6794	433.058	16.429
-38.6741	431.77	16.4973
-38.66803	428.291	16.5657
-38.664	429.437	16.634
-38.6569	430.299	16.7024
-38.6515	433.138	16.7708
-38.6444	435.101	16.8391
-38.6393	436.9	16.9075
-38.6339	438.498	16.97583
-38.628	441.511	17.0442
-38.6217	445.219	17.1125
-38.6164	443.186	17.1809
-38.6118	440.071	17.2493
-38.6053	440.277	17.3176
-38.5989	440.536	17.386
-38.5945	441.123	17.4543
-38.5892	442.459	17.5227
-38.5823	443.563	17.5911
-38.5772	444.088	17.6594
-38.5708	447.864	17.7278
-38.5659	450.938	17.7961
-38.5604	451.171	17.8645
-38.5545	451.196	17.9329
-38.5477	447.627	18.0012
-38.5415	447.638	18.06958
-38.5373	445.762	18.1379
-38.5324	446.333	18.2063
-38.5255	447.004	18.2747
-38.52055	447.427	18.343
-38.5143	453.584	18.4114
-38.5079	453.567	18.4797
-38.5033	454.944	18.5481
-38.4974	455.579	18.6165
-38.491	452.9093	18.6848
-38.4844	452.089	18.7532
-38.4799	451.123	18.8215
-38.4734	449.253	18.8899
-38.468	446.103	18.9583
-38.4627	449.321	19.0266
-38.4568	455.431	19.095
-38.4509	454.394	19.16333
-38.4468	455.543	19.2317
-38.44	456.713	19.3
-38.4346	452.046	19.3684
-38.4279	453.747	19.4368
-38.4235	450.657	19.5051
-38.4176	446.346	19.5735
-38.4121	442.916	19.6418
-38.40556	446.68	19.7102
-38.4006	452.752	19.7786
-38.3947	451.068	19.8469
-38.3895	452.3782	19.9153
-38.3831	454.962	19.9836
-38.3802	447.972	20.0129

Data Header:			0.254_hd_dimension_typeiv_090_r0			Time:	33.3853	s	4/14/2019 12:37:26 AM
Data Acquisition:	Timed
Station Name:	ft40.cfg
Test File Name:	monotonic_0.2540_typeiv_hd_090_dimension.tst
Displacement	Force	Running Time
mm	N	s
-38.3792	447.585	20.0227
-38.376	446.986	20.0715
-38.37289	451.751	20.1204
-38.3679	452.167	20.1692
-38.3643	448.85	20.218
-38.3596	447.561	20.2668
-38.3564	448.29	20.3157
-38.3514	452.871	20.3645
-38.3482	449.232	20.41333
-38.3424	446.5351	20.4622
-38.3389	445.222	20.511
-38.3346	445.933	20.5598
-38.3304	446.398	20.6086
-38.3277	444.333	20.6575
-38.3209	440.456	20.7063
-38.3184	444.839	20.7551
-38.315	447.988	20.804
-38.3114	450.757	20.8528
-38.3078	443.003	20.9016
-38.3039	443.26	20.9504
-38.2991	447.153	20.9993
-38.2947	448.165	21.0481
-38.2908	446.705	21.0969
-38.28616	441.909	21.1458
-38.2817	442.814	21.19458
-38.2787	446.552	21.2434
-38.2737	443.872	21.2922
-38.2716	437.819	21.3411
-38.2661	438.153	21.3899
-38.2619	443.1051	21.4387
-38.2582	447.217	21.4875
-38.2534	445.186	21.5364
-38.2505	438.967	21.5852
-38.2445	439.773	21.634
-38.2419	444.965	21.6829
-38.2369	445.1449	21.7317
-38.2327	440.4361	21.7805
-38.2292	438.2301	21.8293
-38.2255	442.1037	21.8782
-38.221	443.7894	21.927
-38.2179	440.342	21.97583
-38.2138	433.143	22.0247
-38.2084	435.404	22.0735
-38.2044	441.268	22.1223
-38.2006	444.339	22.1711
-38.1976	439.309	22.22
-38.1935	437.106	22.2688
-38.1892	438.058	22.3176
-38.1847	442.676	22.3665
-38.1814	443.163	22.4153
-38.1763	437.708	22.4641
-38.173	437.073	22.5129
-38.1673	441.412	22.5618
-38.1652	443.066	22.6106
-38.1603	437.26	22.6594
-38.15601	434.376	22.7083
-38.1525	432.63	22.75708
-38.14978	439.992	22.8059
-38.1445	443.308	22.8547
-38.1397	437.462	22.9036
-38.1359	434.558	22.9524
-38.1311	438.872	23.0012
-38.1281	442.725	23.05
-38.1237	441.9798	23.0989
-38.1203	434.374	23.1477
-38.1155	436.225	23.1965
-38.1119	441.486	23.2454
-38.1078	442.66	23.2942
-38.1038	434.925	23.343
-38.0993	430.8002	23.3918
-38.0958	432.8389	23.4407
-38.0901	440.495	23.4895
-38.0863	439.066	23.53833
-38.0823	432.859	23.5872
-38.0781	433.037	23.636
-38.076	435.783	23.6848
-38.0704	440.5123	23.7336
-38.0661	438.632	23.7825
-38.0624	434.61	23.8313
-38.0585	433.537	23.8801
-38.054	439.764	23.929
-38.0502	440.822	23.9778
-38.04689	434.7457	24.0266
-38.0417	430.1431	24.0754
-38.03756	433.118	24.1243
-38.0337	437.636	24.1731
-38.0307	436.732	24.2219
-38.02639	434.195	24.2708
-38.023	433.631	24.31958
-38.0184	436.44	24.3684
-38.0156	437.023	24.4172
-38.00988	434.942	24.4661
-38.0065	431.5036	24.5149
-38.0016	433.194	24.5637
-37.9976	437.986	24.6125
-37.9929	436.217	24.6614
-37.9899	432.545	24.7102
-37.985	428.802	24.759
-37.9821	434.021	24.8079
-37.977	434.889	24.8567
-37.9722	432.973	24.9055
-37.9701	431.406	24.9543
-37.9653	433.221	25.0032
-37.9613	437.305	25.052
-37.9582	435.405	25.10083
-37.954	433.817	25.1497
-37.94875	430.771	25.1985
-37.9437	434.648	25.2473
-37.9405	440.324	25.2961
-37.9365	437.374	25.345
-37.933	432.705	25.3938
-37.9278	431.4231	25.4426
-37.9245	435.309	25.4915
-37.9197	435.034	25.5403
-37.9168	430.756	25.5891
-37.9119	431.78	25.6379
-37.9077	433.9574	25.6868
-37.9037	435.656	25.7356
-37.9005	434.841	25.7844
-37.89653	431.365	25.8333
-37.891	432.377	25.88208
-37.8876	434.584	25.9309
-37.8833	434.747	25.9797
-37.87981	431.807	26.0286
-37.8754	430.986	26.0774
-37.8713	431.69	26.1262
-37.8684	433.184	26.175
-37.8637	432.572	26.2239
-37.8599	430.217	26.2727
-37.8546	431.638	26.3215
-37.8519	434.939	26.3704
-37.8472	436.497	26.4192
-37.843	431.503	26.468
-37.8393	426.657	26.5168
-37.834	431.748	26.5657
-37.831	435.167	26.6145
-37.8268	434.588	26.66333
-37.82235	430.942	26.7122
-37.8179	431.93	26.761
-37.8144	434.3	26.8098
-37.80991	434.171	26.8586
-37.8063	430.782	26.9075
-37.8018	427.424	26.9563
-37.7977	432.812	27.0051
-37.7944	436.9772	27.054
-37.7907	435.867	27.1028
-37.7858	429.317	27.1516
-37.7824	427.416	27.2004
-37.7781	431.553	27.2493
-37.7742	434.793	27.2981
-37.7702	431.897	27.3469
-37.7652	427.8	27.3958
-37.7619	430.727	27.44458
-37.7575	433.337	27.4934
-37.75259	432.283	27.5422
-37.7485	428.779	27.5911
-37.7455	426.472	27.6399
-37.7416	432.0336	27.6887
-37.7377	436.599	27.7375
-37.7332	432.687	27.7864
-37.7286	429.79	27.8352
-37.7259	426.58	27.884
-37.7205	433.922	27.9329
-37.7174	434.364	27.9817
-37.7127	429.974	28.0305
-37.7082	425.48	28.0793
-37.7043	429.1196	28.1282
-37.7014	435.0387	28.177
-37.6966	432.998	28.22583
-37.6918	424.664	28.2747
-37.6896	424.836	28.3235
-37.6849	432.713	28.3723
-37.6803	436.491	28.4211
-37.6755	432.523	28.47
-37.67281	427.004	28.5188
-37.668	427.211	28.5676
-37.6625	434.991	28.6165
-37.6593	434.041	28.6653
-37.6556	427.036	28.7141
-37.6521	425.902	28.7629
-37.6474	430.554	28.8118
-37.6432	435.443	28.8606
-37.6388	429.953	28.9094
-37.6366	424.15	28.9583
-37.6322	425.2717	29.00708
-37.62775	431.866	29.0559
-37.6226	434.491	29.1047
-37.6185	430.3902	29.1536
-37.614	426.409	29.2024
-37.6111	429.65	29.2512
-37.60725	434.539	29.3
-37.6042	432.841	29.3489
-37.5998	427.168	29.3977
-37.5954	424.957	29.4465
-37.5911	431.153	29.4954
-37.5862	434.453	29.5442
-37.5831	429.904	29.593
-37.5784	424.451	29.6418
-37.5746	426.039	29.6907
-37.5701	430.28	29.7395
-37.5671	431.157	29.78833
-37.5618	428.245	29.8372
-37.558	426.3699	29.886
-37.5537	429.826	29.9348
-37.5509	431.804	29.9836
-37.54594	428.855	30.0325
-37.5406	425.902	30.0813
-37.53751	425.964	30.1301
-37.5338	430.4476	30.179
-37.5293	432.003	30.2278
-37.5256	428.244	30.2766
-37.5215	423.707	30.3254
-37.5175	426.587	30.3743
-37.51368	428.946	30.4231
-37.5086	427.69	30.4719
-37.5051	425.812	30.5208
-37.5005	426.287	30.56958
-37.4968	429.711	30.6184
-37.493	430.626	30.6672
-37.4895	425.6322	30.7161
-37.4846	423.618	30.7649
-37.4807	424.927	30.8137
-37.477	428.185	30.8625
-37.4724	427.908	30.9114
-37.4685	425.127	30.9602
-37.4649	423.537	31.009
-37.4611	424.674	31.0579
-37.4559	426.611	31.1067
-37.4529	423.687	31.1555
-37.4482	422.864	31.2043
-37.4442	427.304	31.2532
-37.4408	428.166	31.302
-37.4364	427.163	31.35083
-37.4317	422.0368	31.3997
-37.42836	421.464	31.4485
-37.4233	424.474	31.4973
-37.4189	427.153	31.5461
-37.4161	423.14	31.595
-37.411	421.63	31.6438
-37.4081	422.846	31.6926
-37.40366	424.354	31.7415
-37.3985	422.502	31.7903
-37.3948	419.029	31.8391
-37.3908	419.4006	31.8879
-37.3865	425.713	31.9368
-37.38353	426.646	31.9856
-37.3786	420.974	32.0344
-37.3744	413.997	32.0833
-37.3703	415.168	32.13208
-37.3666	415.899	32.1809
-37.363	411.036	32.2297
-37.3581	365.9	32.2786
-37.3528	-44.916	32.3274
-37.3506	-40.1958	32.3762
-37.3459	-40.5234	32.425
-37.3435	-43.1817	32.4739
-37.3391	-46.6934	32.5227
-37.3338	-45.7051	32.5715
-37.33	-39.01667	32.6204
-37.3274	-37.6297	32.6692
-37.3208	-41.166	32.718
-37.317	-46.0783	32.7668
-37.31295	-44.2672	32.8157
-37.30957	-37.4588	32.8645
-37.3055	-40.931	32.91333
-37.302	-45.51	32.9622
-37.2966	-45.2656	33.011
-37.2927	-40.3812	33.0598
-37.2888	-38.966	33.1086
-37.2849	-45.0333	33.1575
-37.2796	-48.357	33.2063
-37.2774	-45.02457	33.2551
-37.2737	-38.2606	33.304
-37.2686	-37.6518	33.3528
-37.26683	-43.8789	33.3723