File: data/processed_data_files/tensile/0.254_solid_uprint_typei_4545_r(6).dat
MTS793|BTW|ENU|1|2|.|/|:|1|0|0|A

Data Header:			0.254_solid_uprint_typei_4545_r0			Time:	20.0173	s	4/14/2019 4:33:03 AM
Data Acquisition:	Timed
Station Name:	ft40.cfg
Test File Name:	monotonic_0.2540_typei_solid_4545_uprint.tst
Displacement	Force	Running Time
mm	N	s
9.95821	-105.376	0.0224609
9.95844	-101.161	0.0908203
9.96506	-96.892	0.15918
9.9694	-89.9535	0.227539
9.97552	-86.70327	0.295898
9.98152	-88.9035	0.364258
9.98762	-90.2041	0.432617
9.99243	-88.2798	0.500977
9.99788	-90.4573	0.569336
10.0043	-90.8194	0.637695
10.01	-80.6587	0.706055
10.0156	-71.9995	0.774414
10.0214	-67.1438	0.842773
10.02661	-59.6703	0.911133
10.033	-54.0621	0.979492
10.0375	-52.80761	1.04785
10.0443	-51.4796	1.11621
10.0499	-53.4874	1.18457
10.0554	-55.7589	1.25293
10.0613	-55.2386	1.32129
10.0662	-48.7474	1.38965
10.0721	-43.8687	1.45801
10.0772	-36.5996	1.52637
10.0846	-25.9172	1.59473
10.0891	-20.3876	1.66309
10.0959	-16.1421	1.73145
10.1009	-15.1797	1.7998
10.1068	-15.2022	1.86816
10.1115	-19.7286	1.93652
10.1176	-19.25429	2.00488
10.1242	-13.301	2.07324
10.12879	-9.35913	2.1416
10.1341	-4.57913	2.20996
10.1403	4.7237	2.27832
10.1467	12.07131	2.34668
10.1519	19.8317	2.41504
10.1575	22.586	2.4834
10.1641	23.7099	2.55176
10.1687	18.5035	2.62012
10.1749	20.4332	2.68848
10.1807	22.8004	2.75684
10.1869	23.3941	2.8252
10.1926	29.4192	2.89355
10.1967	38.208	2.96191
10.2041	46.7905	3.03027
10.209	53.8393	3.09863
10.2145	60.6463	3.16699
10.2202	60.7496	3.23535
10.2259	59.2581	3.30371
10.2316	60.1446	3.37207
10.2364	59.2847	3.44043
10.2436	61.3162	3.50879
10.249	63.4735	3.57715
10.2544	70.7852	3.64551
10.2594	82.4571	3.71387
10.2661	89.8485	3.78223
10.2712	95.8871	3.85059
10.2772	98.5958	3.91895
10.2836	99.3393	3.9873
10.2885	100.982	4.05566
10.2943	99.1125	4.12402
10.3005	99.09185	4.19238
10.3055	102.505	4.26074
10.3118	103.562	4.3291
10.3168	115.301	4.39746
10.3231	123.418	4.46582
10.3283	130.214	4.53418
10.3335	134.629	4.60254
10.3405	138.681	4.6709
10.3439	141.629	4.73926
10.3509	139.768	4.80762
10.3578	137.5717	4.87598
10.3635	138.4917	4.94434
10.369	139.239	5.0127
10.3752	148.205	5.08105
10.37967	156.622	5.14941
10.3864	161.078	5.21777
10.3911	169.58	5.28613
10.3966	178.2	5.35449
10.4027	179.849	5.42285
10.4079	177.659	5.49121
10.4137	178.084	5.55957
10.4194	175.904	5.62793
10.4256	175.381	5.69629
10.4299	181.298	5.76465
10.4368	189.324	5.83301
10.44189	193.967	5.90137
10.4481	203.021	5.96973
10.4527	214.642	6.03809
10.4598	217.154	6.10645
10.4647	217.516	6.1748
10.47047	219.687	6.24316
10.4767	216.027	6.31152
10.4813	215.184	6.37988
10.4885	218.368	6.44824
10.4938	222.603	6.5166
10.4987	226.06	6.58496
10.5045	236.772	6.65332
10.5111	248.808	6.72168
10.5161	251.4525	6.79004
10.522	255.853	6.8584
10.5291	257.6553	6.92676
10.533	254.69	6.99512
10.539	255.012	7.06348
10.5455	255.596	7.13184
10.5509	256.003	7.2002
10.5558	258.481	7.26855
10.5613	268.329	7.33691
10.5679	282.389	7.40527
10.57433	285.112	7.47363
10.57817	292.514	7.54199
10.5862	295.798	7.61035
10.5912	294.445	7.67871
10.59504	292.047	7.74707
10.6032	294.213	7.81543
10.6074	291.38	7.88379
10.6136	291.801	7.95215
10.6181	303.206	8.02051
10.6247	311.6055	8.08887
10.6304	317.525	8.15723
10.63605	325.578	8.22559
10.641	332.473	8.29395
10.6479	334.936	8.3623
10.6526	335.041	8.43066
10.6584	332.585	8.49902
10.66436	330.21	8.56738
10.6693	328.242	8.63574
10.6755	333.99	8.7041
10.6802	340.844	8.77246
10.6873	347.246	8.84082
10.6927	359.186	8.90918
10.6985	366.575	8.97754
10.7053	372.898	9.0459
10.7098	373.842	9.11426
10.716	372.689	9.18262
10.72129	368.826	9.25098
10.7271	366.035	9.31934
10.7338	367.454	9.3877
10.739	371.222	9.45605
10.74443	377.6745	9.52441
10.7491	387.688	9.59277
10.755	397.027	9.66113
10.7618	407.74	9.72949
10.7675	411.742	9.79785
10.7723	411.597	9.86621
10.779	407.847	9.93457
10.784	406.073	10.00293
10.7899	405.25	10.0713
10.7953	405.773	10.1396
10.802	408.517	10.208
10.8065	416.993	10.2764
10.8126	427.558	10.3447
10.8185	438.578	10.4131
10.8239	445.041	10.4814
10.8292	446.641	10.5498
10.8356	445.623	10.6182
10.8411	445.557	10.6865
10.8467	442.102	10.7549
10.8528	439.4754	10.8232
10.8582	442.992	10.8916
10.8638	448.68	10.96
10.86924	458.974	11.02832
10.8742	469.791	11.09668
10.8819	477.315	11.165
10.8868	480.938	11.2334
10.8916	484.096	11.3018
10.898	485.043	11.3701
10.9037	479.139	11.4385
10.9089	477.8071	11.5068
10.9163	476.986	11.5752
10.9203	477.143	11.6436
10.92669	487.394	11.7119
10.933	498.263	11.7803
10.9373	505.556	11.8486
10.9437	512.042	11.917
10.9487	520.91	11.9854
10.9546	521.475	12.0537
10.9613	516.467	12.12207
10.9658	514.543	12.19043
10.973	512.208	12.2588
10.9778	510.799	12.3271
10.9826	517.319	12.3955
10.9892	527.438	12.4639
10.995	532.781	12.5322
11.0001	542.842	12.6006
11.0065	554.139	12.6689
11.0121	553.563	12.7373
11.01804	552.535	12.8057
11.0235	552.051	12.874
11.0286	548.402	12.9424
11.034	545	13.0107
11.0403	548.071	13.0791
11.046	553.79	13.1475
11.0507	559.371	13.21582
11.0578	571.697	13.28418
11.0623	581.7417	13.3525
11.0688	588.556	13.4209
11.0745	587.097	13.4893
11.0805	587.978	13.5576
11.0851	581.895	13.626
11.09075	579.295	13.6943
11.097	581.006	13.7627
11.1032	582.16	13.8311
11.1076	584.902	13.8994
11.1137	596.4696	13.9678
11.1208	613.122	14.0361
11.1252	615.576	14.1045
11.1309	620.1189	14.1729
11.137	622.4165	14.2412
11.1423	617.3067	14.30957
11.148	612.924	14.37793
11.153	613.748	14.4463
11.1592	612.532	14.5146
11.1657	613.087	14.583
11.1715	626.443	14.6514
11.1766	637.6969	14.7197
11.1818	643.274	14.7881
11.1892	652.043	14.8564
11.1937	656.884	14.9248
11.1996	653.907	14.9932
11.206	649.014	15.0615
11.2111	648.813	15.1299
11.2166	641.198	15.1982
11.2223	642.658	15.2666
11.2284	652	15.335
11.2337	660.739	15.40332
11.2393	669.575	15.47168
11.2457	680.503	15.54
11.2521	684.594	15.6084
11.2567	687.713	15.6768
11.2623	684.361	15.7451
11.2677	681.665	15.8135
11.2741	674.382	15.8818
11.28	674.225	15.9502
11.2851	679.694	16.0186
11.291	686.087	16.0869
11.2958	693.604	16.1553
11.3024	705.417	16.2236
11.3085	711.7962	16.292
11.3131	716.646	16.3604
11.31962	718.08	16.4287
11.325	715.239	16.49707
11.3309	708.874	16.56543
11.3363	705.421	16.6338
11.34132	709.33	16.7021
11.3484	711.748	16.7705
11.3543	717.827	16.8389
11.3586	729.383	16.9072
11.36465	739.263	16.9756
11.3705	746.233	17.0439
11.3763	748.641	17.1123
11.3825	746.125	17.1807
11.3881	742.0943	17.249
11.393	739.029	17.3174
11.3986	738.674	17.3857
11.4045	737.807	17.4541
11.4109	743.3891	17.5225
11.4155	750.456	17.59082
11.4211	763.4613	17.65918
11.4273	772.841	17.7275
11.433	777.236	17.7959
11.4392	774.919	17.8643
11.4439	774.911	17.9326
11.4501	771.931	18.001
11.4564	766.719	18.0693
11.4606	765.81	18.1377
11.46703	770.447	18.2061
11.4728	772.916	18.2744
11.47823	786.331	18.3428
11.4842	794.683	18.4111
11.4889	799.61	18.4795
11.4968	803.373	18.5479
11.5011	805.834	18.6162
11.5074	802.591	18.68457
11.5134	795.104	18.75293
11.5177	795.063	18.8213
11.5243	794.176	18.8896
11.52928	798.124	18.958
11.5351	808.422	19.0264
11.5419	818.349	19.0947
11.5471	821.878	19.1631
11.553	828.812	19.2314
11.5582	833.804	19.2998
11.5646	829.604	19.3682
11.5697	825.133	19.4365
11.5765	824.6463	19.5049
11.5815	821.107	19.5732
11.5873	821.932	19.6416
11.5919	829.388	19.71
11.59809	837.706	19.77832
11.6045	843.037	19.84668
11.6094	851.588	19.915
11.6149	860.3573	19.9834
11.61702	836.058	20.0127

Data Header:			0.254_solid_uprint_typei_4545_r0			Time:	40.0173	s	4/14/2019 4:33:23 AM
Data Acquisition:	Timed
Station Name:	ft40.cfg
Test File Name:	monotonic_0.2540_typei_solid_4545_uprint.tst
Displacement	Force	Running Time
mm	N	s
11.6195	839.316	20.0225
11.6244	846.6	20.09082
11.6293	857.681	20.15918
11.6366	863.694	20.2275
11.64055	866.183	20.2959
11.6474	866.491	20.3643
11.6539	865.295	20.4326
11.6579	862.05	20.501
11.6636	856.7879	20.5693
11.6698	857.148	20.6377
11.675	858.187	20.7061
11.6813	866.5722	20.7744
11.6874	876.99	20.8428
11.6926	884.84	20.9111
11.6979	887.958	20.9795
11.7044	891.167	21.0479
11.7096	893.019	21.1162
11.7147	887.093	21.18457
11.7212	885.529	21.25293
11.7268	881.164	21.3213
11.7318	879.4812	21.3896
11.7375	886.4	21.458
11.7435	894.136	21.5264
11.7499	901.637	21.5947
11.7557	906.9433	21.6631
11.7606	913.103	21.7314
11.7657	915.17	21.7998
11.7723	910.696	21.8682
11.7777	908.835	21.9365
11.7836	904.358	22.0049
11.7888	901.799	22.0732
11.7951	905.121	22.1416
11.801	912.248	22.21
11.80588	917.332	22.27832
11.8121	924.651	22.34668
11.8186	934.7865	22.415
11.824	936.5705	22.4834
11.8296	934.139	22.5518
11.835	934.9613	22.6201
11.8411	926.668	22.6885
11.8475	924.2	22.7568
11.8513	924.916	22.8252
11.8581	929.124	22.8936
11.8632	930.597	22.9619
11.8697	938.625	23.0303
11.8753	951.415	23.0986
11.8796	954.606	23.167
11.8872	955.875	23.2354
11.8922	955.326	23.3037
11.8987	949.337	23.37207
11.9037	945.879	23.44043
11.9093	946.487	23.5088
11.9144	945.449	23.5771
11.9206	946.302	23.6455
11.9266	952.431	23.7139
11.932	966.246	23.7822
11.9367	968.896	23.8506
11.94372	972.584	23.9189
11.9488	975.498	23.9873
11.9544	969.592	24.0557
11.9598	965.9516	24.124
11.9661	964.469	24.1924
11.97144	959.826	24.2607
11.9767	958.817	24.3291
11.9834	967.781	24.3975
11.9886	977.883	24.46582
11.994	980.395	24.53418
12.0001	988.726	24.6025
12.005	991.537	24.6709
12.0122	986.692	24.7393
12.0162	986.0426	24.8076
12.0231	985.178	24.876
12.0289	976.414	24.9443
12.0336	975.359	25.0127
12.0393	981.146	25.0811
12.0453	987.091	25.1494
12.0515	990.248	25.2178
12.0577	999.602	25.2861
12.0627	1004.16	25.3545
12.0686	1005.57	25.4229
12.0743	1003.142	25.4912
12.0796	999.207	25.55957
12.0858	990.615	25.62793
12.0912	988.475	25.6963
12.097	993.807	25.7646
12.1034	996.135	25.833
12.1085	999.96	25.9014
12.1133	1008.28	25.9697
12.1198	1013.52	26.0381
12.12544	1018.83	26.1064
12.13169	1018.44	26.1748
12.1368	1012.48	26.2432
12.14242	1005.91	26.3115
12.1483	1002.54	26.3799
12.1542	1003.36	26.4482
12.1594	1004.43	26.5166
12.1647	1008.79	26.585
12.171	1014.74	26.65332
12.1766	1021.59	26.72168
12.18229	1026.902	26.79
12.1874	1026.68	26.8584
12.19237	1025.39	26.9268
12.1995	1019.887	26.9951
12.2054	1017.12	27.0635
12.2102	1014.17	27.1318
12.2156	1011.37	27.2002
12.2216	1015.09	27.2686
12.2274	1019.11	27.3369
12.2334	1026.45	27.4053
12.2384	1032.77	27.4736
12.2452	1036.98	27.542
12.2507	1035.98	27.6104
12.2557	1031.9	27.6787
12.2621	1030.786	27.74707
12.2675	1024.46	27.81543
12.2727	1021.08	27.8838
12.2787	1018.79	27.9521
12.2849	1022.94	28.0205
12.2916	1030.06	28.0889
12.2965	1037.29	28.1572
12.3019	1039.84	28.2256
12.3064	1041.34	28.2939
12.3128	1040.71	28.3623
12.3191	1040.6	28.4307
12.325	1033.26	28.499
12.33	1030.17	28.5674
12.3356	1028.01	28.6357
12.34158	1025.67	28.7041
12.3475	1032.73	28.7725
12.3523	1039.36	28.84082
12.3585	1042.27	28.90918
12.3645	1045.52	28.9775
12.3709	1048.73	29.0459
12.3759	1047.14	29.1143
12.3814	1040.74	29.1826
12.3868	1036.32	29.251
12.394	1032.72	29.3193
12.399	1029.92	29.3877
12.4043	1034.95	29.4561
12.4098	1038.52	29.5244
12.4167	1043.01	29.5928
12.4215	1047.8	29.6611
12.4274	1055.69	29.7295
12.4326	1053.12	29.7979
12.4382	1049.41	29.8662
12.4441	1045.65	29.93457
12.4502	1038.68	30.00293
12.4561	1036.214	30.0713
12.4626	1036.21	30.1396
12.4676	1039.4	30.208
12.4726	1041.423	30.2764
12.4781	1048.42	30.3447
12.4836	1057.07	30.4131
12.4897	1055.22	30.4814
12.4949	1054.86	30.5498
12.50119	1051.93	30.6182
12.50763	1044.74	30.6865
12.51138	1041.38	30.7549
12.5179	1041.42	30.8232
12.5243	1039.65	30.8916
12.5288	1039.82	30.96
12.5341	1048.261	31.02832
12.5419	1057.36	31.09668
12.54656	1058	31.165
12.5529	1059.34	31.2334
12.558	1057.72	31.3018
12.5638	1050.77	31.3701
12.5692	1046.15	31.4385
12.5752	1043.47	31.5068
12.5808	1039.68	31.5752
12.5862	1039.08	31.6436
12.592	1048.65	31.7119
12.5989	1053.89	31.7803
12.60345	1057.06	31.8486
12.6094	1062.24	31.917
12.6147	1063.134	31.9854
12.6209	1056.95	32.0537
12.62656	1050.89	32.12207
12.63225	1046.38	32.19043
12.6375	1041.29	32.2588
12.6427	1038.4	32.3271
12.6497	1048.29	32.3955
12.65418	1052.15	32.4639
12.6604	1056.07	32.5322
12.6666	1060.34	32.6006
12.67207	1062.33	32.6689
12.67716	1061.49	32.7373
12.6843	1057.11	32.8057
12.6894	1051.25	32.874
12.6936	1043.03	32.9424
12.7004	1040.99	33.0107
12.7073	1045.756	33.0791
12.7122	1049.87	33.1475
12.7167	1054.02	33.21582
12.72288	1059.79	33.28418
12.729	1063.639	33.3525
12.7352	1064.58	33.4209
12.7396	1061.32	33.4893
12.7463	1056.57	33.5576
12.7505	1046.53	33.626
12.7571	1045.95	33.6943
12.7634	1045.75	33.7627
12.7691	1046.78	33.8311
12.7745	1050.08	33.8994
12.7801	1057.929	33.9678
12.7854	1063.21	34.0361
12.7915	1065.41	34.1045
12.797	1064.21	34.1729
12.80366	1057.89	34.2412
12.8086	1052.73	34.30957
12.8145	1050.19	34.37793
12.8193	1047.052	34.4463
12.826	1045.88	34.5146
12.8313	1048.86	34.583
12.8376	1052.08	34.6514
12.84317	1060.767	34.7197
12.8477	1064.38	34.7881
12.8538	1065.83	34.8564
12.8605	1062.19	34.9248
12.8658	1058.048	34.9932
12.8707	1053.56	35.0615
12.8768	1049.57	35.1299
12.8828	1045.54	35.1982
12.8895	1046.57	35.2666
12.8949	1048.45	35.335
12.9002	1058.77	35.40332
12.9063	1062.91	35.47168
12.9118	1063.72	35.54
12.9175	1063.42	35.6084
12.9222	1062.3	35.6768
12.9285	1058.21	35.7451
12.9344	1052.41	35.8135
12.9384	1047.95	35.8818
12.94407	1048.14	35.9502
12.9513	1048.38	36.0186
12.9566	1054.69	36.0869
12.962	1058.92	36.1553
12.9685	1060.69	36.2236
12.9738	1062.905	36.292
12.9795	1067.08	36.3604
12.9846	1061.57	36.4287
12.9911	1056.47	36.49707
12.99721	1050.95	36.56543
13.0021	1046.25	36.6338
13.0078	1045.94	36.7021
13.0137	1051.302	36.7705
13.0194	1056.025	36.8389
13.0256	1057.86	36.9072
13.0306	1062.98	36.9756
13.0359	1067.84	37.0439
13.0419	1063.41	37.1123
13.0484	1059.89	37.1807
13.0538	1056.696	37.249
13.0598	1048.18	37.3174
13.0646	1048.93	37.3857
13.0709	1049.33	37.4541
13.0765	1050.75	37.5225
13.0821	1054.25	37.59082
13.0872	1061.57	37.65918
13.0931	1067.673	37.7275
13.0996	1064.15	37.7959
13.1052	1060.77	37.8643
13.1104	1059.1	37.9326
13.1163	1051.94	38.001
13.1222	1048.307	38.0693
13.1273	1048.45	38.1377
13.1332	1049.09	38.2061
13.1386	1049	38.2744
13.1446	1057.74	38.3428
13.1507	1064.2	38.4111
13.1561	1062.97	38.4795
13.161	1065.92	38.5479
13.16796	1062.55	38.6162
13.1736	1056.26	38.68457
13.1795	1050.819	38.75293
13.1845	1049.8	38.8213
13.1902	1044.938	38.8896
13.1971	1046.84	38.958
13.2022	1057.57	39.0264
13.2079	1061.36	39.0947
13.2123	1062.32	39.1631
13.219	1065.77	39.2314
13.224	1064.85	39.2998
13.2301	1059.95	39.3682
13.2364	1053.71	39.4365
13.2409	1050.01	39.5049
13.2474	1044.074	39.5732
13.2521	1045.53	39.6416
13.2595	1055.09	39.71
13.265	1056.29	39.77832
13.2701	1059.1	39.84668
13.2754	1065.28	39.915
13.2823	1066.22	39.9834
13.2844	1046.07	40.0127

Data Header:			0.254_solid_uprint_typei_4545_r0			Time:	60.0173	s	4/14/2019 4:33:43 AM
Data Acquisition:	Timed
Station Name:	ft40.cfg
Test File Name:	monotonic_0.2540_typei_solid_4545_uprint.tst
Displacement	Force	Running Time
mm	N	s
13.2847	1050.04	40.0225
13.2908	1053.86	40.09082
13.2959	1062.53	40.15918
13.3016	1065.4	40.2275
13.3078	1064.08	40.2959
13.3139	1063.5	40.3643
13.3193	1057.32	40.4326
13.3251	1050.95	40.501
13.3309	1048.52	40.5693
13.3361	1047.17	40.6377
13.341	1045.73	40.7061
13.3476	1050.204	40.7744
13.3545	1059.67	40.8428
13.3577	1061.73	40.9111
13.364	1062.37	40.9795
13.37107	1064.97	41.0479
13.3761	1057.78	41.1162
13.3814	1054.48	41.18457
13.3877	1050.64	41.25293
13.39325	1046.64	41.3213
13.3986	1043.59	41.3896
13.4036	1049.802	41.458
13.4099	1055.71	41.5264
13.4153	1058.2	41.5947
13.42043	1061.95	41.6631
13.4267	1064.42	41.7314
13.4329	1061.49	41.7998
13.4388	1056.56	41.8682
13.4451	1054.01	41.9365
13.4498	1046.9	42.0049
13.4562	1041.53	42.0732
13.4614	1046.06	42.1416
13.4664	1052.28	42.21
13.472	1052.71	42.27832
13.4779	1060.57	42.34668
13.4835	1065.47	42.415
13.4901	1062.96	42.4834
13.4945	1060.74	42.5518
13.5009	1056.68	42.6201
13.5065	1048.21	42.6885
13.5114	1043.96	42.7568
13.51748	1046.98	42.8252
13.5234	1047.88	42.8936
13.5287	1049.67	42.9619
13.5345	1057.98	43.0303
13.5413	1063.11	43.0986
13.548	1063.18	43.167
13.5524	1062.14	43.2354
13.5578	1058.85	43.3037
13.5632	1050.24	43.37207
13.569	1044.64	43.44043
13.5753	1045.38	43.5088
13.5809	1044.94	43.5771
13.5859	1046.18	43.6455
13.5914	1052.78	43.7139
13.5983	1056.39	43.7822
13.6029	1064.31	43.8506
13.6101	1064.33	43.9189
13.6147	1060.23	43.9873
13.6201	1053.35	44.0557
13.6266	1049.88	44.124
13.63205	1046.73	44.1924
13.6371	1044.75	44.2607
13.64252	1044.22	44.3291
13.6499	1050.26	44.3975
13.6544	1054.64	44.46582
13.6609	1059.81	44.53418
13.6661	1061.84	44.6025
13.6726	1061.33	44.6709
13.6776	1056.54	44.7393
13.6835	1052.51	44.8076
13.6885	1048.22	44.876
13.695	1043.76	44.9443
13.70034	1044.23	45.0127
13.70569	1045.29	45.0811
13.7118	1050.9	45.1494
13.7168	1055.79	45.2178
13.72238	1059.54	45.2861
13.7293	1059.03	45.3545
13.7343	1060.55	45.4229
13.7397	1056.38	45.4912
13.7461	1050.5	45.55957
13.7516	1046.34	45.62793
13.75731	1043.04	45.6963
13.7635	1042.81	45.7646
13.7692	1047.34	45.833
13.7734	1053.04	45.9014
13.7799	1056.34	45.9697
13.78604	1058.71	46.0381
13.7923	1059.96	46.1064
13.7963	1060.86	46.1748
13.8019	1051.7	46.2432
13.80792	1049.52	46.3115
13.8148	1044.12	46.3799
13.8202	1040.53	46.4482
13.8257	1044.92	46.5166
13.83093	1048.88	46.585
13.8368	1051.81	46.65332
13.84373	1054.49	46.72168
13.8485	1061.59	46.79
13.8538	1061.1	46.8584
13.8595	1055.86	46.9268
[...]
16.1582	1028.95	74.5146
16.1641	1030.49	74.583
16.1698	1034.3	74.6514
16.1754	1040.31	74.7197
16.1811	1040.9	74.7881
16.1863	1042.54	74.8564
16.1922	1040.5	74.9248
16.1976	1036.9	74.9932
16.2037	1027.8	75.0615
16.2101	1026.41	75.1299
16.2152	1027.31	75.1982
16.2217	1027.8	75.2666
16.2268	1031.67	75.335
16.2324	1036.04	75.40332
16.2381	1040.78	75.47168
16.24308	1043.85	75.54
16.25	1043.85	75.6084
16.2552	1038.81	75.6768
16.2617	1031.98	75.7451
16.26692	1028.54	75.8135
16.272	1027.92	75.8818
16.2785	1025.02	75.9502
16.2834	1028.46	76.0186
16.2899	1033.06	76.0869
16.2948	1037.6	76.1553
16.30019	1042.4	76.2236
16.3062	1043.23	76.292
16.3112	1038.13	76.3604
16.31679	1035.05	76.4287
16.3231	1032.85	76.49707
16.3297	1027.52	76.56543
16.33396	1024.52	76.6338
16.34099	1026.62	76.7021
16.3467	1029.245	76.7705
16.3514	1035.21	76.8389
16.3579	1038.6	76.9072
16.3631	1041	76.9756
16.3687	1039.67	77.0439
16.3751	1038.14	77.1123
16.3802	1035.54	77.1807
16.3866	1030.62	77.249
16.3923	1026.15	77.3174
16.398	1024.63	77.3857
16.4033	1025.08	77.4541
16.4086	1032.32	77.5225
16.4144	1036.69	77.59082
16.4207	1038.07	77.65918
16.4261	1040.42	77.7275
16.4311	1039.84	77.7959
16.4371	1040.318	77.8643
16.4438	1034.81	77.9326
16.448	1030.01	78.001
16.4542	1026.41	78.0693
16.4599	1024.27	78.1377
16.4658	1027.5	78.2061
16.4724	1032.01	78.2744
16.4768	1036.33	78.3428
16.4836	1036.985	78.4111
16.48876	1042.12	78.4795
16.4946	1040.73	78.5479
16.5006	1035.32	78.6162
16.5056	1032.9	78.68457
16.5117	1027.67	78.75293
16.5163	1024.03	78.8213
16.5236	1026.05	78.8896
16.5278	1029.95	78.958
16.5337	1028.613	79.0264
16.5398	1034.08	79.0947
16.5456	1042.22	79.1631
16.5509	1041.09	79.2314
16.558	1037.01	79.2998
16.5634	1037.297	79.3682
16.5679	1028.52	79.4365
16.5742	1024.77	79.5049
16.5792	1024.54	79.5732
16.5851	1025.52	79.6416
16.5915	1023.27	79.71
16.5976	1032.19	79.77832
16.6017	1039.05	79.84668
16.6075	1039.68	79.915
16.6143	1039.82	79.9834
16.6164	1024.42	80.0127

Data Header:			0.254_solid_uprint_typei_4545_r0			Time:	90.42749	s	4/14/2019 4:34:14 AM
Data Acquisition:	Timed
Station Name:	ft40.cfg
Test File Name:	monotonic_0.2540_typei_solid_4545_uprint.tst
Displacement	Force	Running Time
mm	N	s
16.618	1030.24	80.0225
16.6198	1025.59	80.0615
16.623	1040.09	80.1006
16.6265	1024.63	80.1396
16.6296	1033.44	80.1787
16.6336	1034.08	80.2178
16.637	1024.05	80.2568
16.6406	1040.78	80.2959
16.6432	1029.13	80.335
16.647	1028.13	80.374
16.6496	1039.97	80.4131
16.6533	1024.395	80.4521
16.6568	1035.4	80.4912
16.6592	1035.27	80.5303
16.6633	1022.95	80.5693
16.6655	1039.52	80.6084
16.66938	1029.37	80.6475
16.6732	1027.4	80.6865
16.6757	1036.55	80.7256
16.679	1023.68	80.7646
16.6821	1032.39	80.8037
16.686	1030.94	80.8428
16.6883	1022.59	80.8818
16.6927	1037.48	80.9209
16.69606	1025.21	80.96
16.6984	1025.64	80.999
16.70182	1041.19	81.0381
16.70491	1019.13	81.0771
16.7074	1034.18	81.1162
16.712	1034.29	81.1553
16.715	1020.53	81.1943
16.7175	1038.3	81.2334
16.7216	1028.82	81.2725
16.7255	1026.93	81.3115
16.7273	1039.27	81.3506
16.732	1024.99	81.3896
16.7345	1032.44	81.4287
16.7376	1035.18	81.4678
16.7408	1022.88	81.5068
16.7439	1040.88	81.5459
16.7473	1028.62	81.585
16.7503	1029.301	81.624
16.7544	1039.38	81.6631
16.7573	1022.89	81.7021
16.7605	1034.845	81.7412
16.7625	1035.09	81.7803
16.76606	1022.32	81.8193
16.7716	1036.79	81.8584
16.7739	1028.08	81.8975
16.7767	1024.276	81.9365
16.7799	1036.53	81.9756
16.7822	1021.23	82.0146
16.78685	1033.68	82.0537
16.7892	1029.84	82.0928
16.7934	1022.23	82.1318
16.7959	1039.66	82.1709
16.8	1023.1	82.21
16.8027	1026.44	82.249
16.8055	1037.7	82.2881
16.8094	1020.1	82.3271
16.8128	1032.45	82.3662
16.8165	1034.868	82.4053
16.8183	1019.47	82.4443
16.8225	1038.5	82.4834
16.8264	1027.36	82.5225
16.8291	1025.46	82.5615
16.8331	1038.71	82.6006
16.8355	1020.762	82.6396
16.839	1033.46	82.6787
16.8411	1033.23	82.7178
16.8448	1023.11	82.7568
16.8477	1038.82	82.7959
16.8519	1026.36	82.835
16.8545	1025.93	82.874
16.8582	1037.91	82.9131
16.8626	1022.267	82.9521
16.86467	1032.4	82.9912
16.8679	1032.76	83.0303
16.8706	1020.57	83.0693
16.8748	1036.22	83.1084
16.8787	1025.03	83.1475
16.88158	1026.75	83.1865
16.8844	1032.74	83.2256
16.8879	1021.71	83.2646
16.8904	1032.09	83.3037
16.8928	1028.75	83.3428
16.897	1019.14	83.3818
16.8998	1038.14	83.4209
16.9036	1022.82	83.46
16.9065	1023.96	83.499
16.9107	1038.08	83.5381
16.9135	1017.39	83.5771
16.9169	1033.38	83.6162
16.9201	1031.35	83.6553
16.9235	1018.89	83.6943
16.9273	1034.26	83.7334
16.9298	1025.57	83.7725
16.9331	1025.61	83.8115
16.9366	1037.31	83.8506
16.9382	1022.98	83.8896
16.9439	1031.57	83.9287
16.9461	1032.22	83.9678
16.94902	1019.4	84.0068
16.9529	1036.413	84.0459
16.9566	1024.99	84.085
16.9595	1023.82	84.124
16.9622	1036.34	84.1631
16.966	1020.18	84.2021
16.9693	1028.32	84.2412
16.9716	1032.05	84.2803
16.975	1018.88	84.3193
16.9783	1032.14	84.3584
16.9815	1024.959	84.3975
16.9849	1024.37	84.4365
16.9876	1033.4	84.4756
16.9923	1018.16	84.5146
16.9949	1030.49	84.5537
16.998	1026.25	84.5928
17.0016	1018.5	84.6318
17.0049	1036.35	84.6709
17.007	1021.57	84.71
17.0115	1024.35	84.749
17.0143	1035.37	84.7881
17.0172	1015.68	84.8271
17.0204	1030.23	84.8662
17.0244	1032.759	84.9053
17.027	1016.429	84.9443
17.0306	1036.14	84.9834
17.0331	1023.2	85.0225
17.0376	1024.7	85.0615
17.0397	1035.2	85.1006
17.0431	1018.81	85.1396
17.0467	1031.84	85.1787
17.0503	1030.53	85.2178
17.0525	1018.64	85.2568
17.0567	1036.11	85.2959
17.0601	1024.73	85.335
17.0633	1022.18	85.374
17.067	1035.09	85.4131
17.0694	1016.18	85.4521
17.0723	1027.394	85.4912
17.0758	1028.74	85.5303
17.0794	1018.62	85.5693
17.0831	1031.07	85.6084
17.0858	1021.38	85.6475
17.0894	1021.28	85.6865
17.0925	1030.34	85.7256
17.0947	1017.611	85.7646
17.0984	1028.79	85.8037
17.1009	1027.11	85.8428
17.1059	1015.5	85.8818
17.1084	1033.26	85.9209
17.1122	1017.76	85.96
17.11659	1021.89	85.999
17.1197	1033.1	86.0381
17.1221	1015.9	86.0771
17.125	1028.63	86.1162
17.1279	1029.74	86.1553
17.13171	1016.416	86.1943
17.13385	1032.1	86.2334
17.1378	1022.17	86.2725
17.1417	1021.7	86.3115
17.1436	1034.48	86.3506
17.1483	1015.68	86.3896
17.15155	1028.38	86.4287
17.1531	1027.76	86.4678
17.1576	1015.59	86.5068
17.1613	1032.407	86.5459
17.16403	1020.38	86.585
17.1671	1018.73	86.624
17.1708	1031.66	86.6631
17.1735	1014.47	86.7021
17.1768	1022.06	86.7412
17.1806	1026.44	86.7803
17.1835	1011.77	86.8193
17.1867	1028.32	86.8584
17.1898	1018.06	86.8975
17.1934	1017.931	86.9365
17.1961	1026.18	86.9756
17.2004	1011.59	87.0146
17.2034	1024.36	87.0537
17.2069	1017.91	87.0928
17.2097	997.784	87.1318
17.2177	-28.0732	87.1709
17.2186	-50.7789	87.21
17.22	-44.1006	87.249
17.2237	-31.1831	87.2881
17.2269	-52.4331	87.3271
17.2298	-35.2022	87.3662
17.2324	-36.7125	87.4053
17.2365	-48.8265	87.4443
17.2398	-28.5456	87.4834
17.243	-47.2877	87.5225
17.2468	-41.68082	87.5615
17.2487	-33.49773	87.6006
17.2527	-46.9742	87.6396
17.256	-37.0512	87.6787
17.2591	-38.1388	87.7178
17.2627	-49.9665	87.7568
17.2646	-31.3646	87.7959
17.2688	-46.7137	87.835
17.272	-45.23634	87.874
17.2761	-32.3269	87.9131
17.278	-50.1518	87.9521
17.2812	-38.08437	87.9912
17.284	-38.8211	88.0303
17.2896	-48.2694	88.0693
17.2923	-37.1635	88.1084
17.2955	-46.1131	88.1475
17.29883	-44.1319	88.1865
17.301	-35.8933	88.2256
17.3047	-48.1294	88.2646
17.3086	-36.0668	88.3037
17.3101	-39.17395	88.3428
17.3144	-50.03495	88.3818
17.3174	-30.4569	88.4209
17.3202	-47.9895	88.46
17.3246	-42.6933	88.499
17.327	-32.8361	88.5381
17.3313	-48.5396	88.5771
17.3342	-36.0034	88.6162
17.3373	-37.0979	88.6553
17.3401	-47.0774	88.6943
17.3432	-32.6589	88.7334
17.3466	-43.2089	88.7725
17.3493	-41.508	88.8115
17.353	-31.68051	88.8506
17.3556	-49.0816	88.8896
17.3596	-34.5491	88.9287
17.3641	-38.2662	88.9678
17.3666	-49.7057	89.0068
17.3705	-32.3147	89.0459
17.37215	-44.3333	89.085
17.3755	-47.1235	89.124
17.3794	-32.1486	89.1631
17.3826	-50.0969	89.2021
17.3866	-42.785	89.2412
17.3896	-39.0783	89.2803
17.3924	-49.9994	89.3193
17.3958	-36.9978	89.3584
17.3983	-47.4726	89.3975
17.4025	-43.191	89.4365
17.4047	-37.2235	89.4756
17.4078	-48.813	89.5146
17.4119	-37.0998	89.5537
17.4154	-39.9229	89.5928
17.4179	-47.60022	89.6318
17.4209	-31.9837	89.6709
17.4243	-45.4869	89.71
17.4286	-44.3507	89.749
17.4308	-31.5794	89.7881
17.4348	-47.3903	89.8271
17.43861	-36.642	89.8662
17.4412	-37.0039	89.9053
17.4436	-46.5274	89.9443
17.4483	-33.3464	89.9834
17.4515	-43.6972	90.0225
17.4551	-43.435	90.0615
17.4588	-34.5494	90.1006
17.4611	-49.3903	90.1396
17.4643	-37.584	90.1787
17.4681	-37.0811	90.2178
17.4689	-52.3027	90.2568
17.474	-32.4677	90.2959
17.4769	-45.9591	90.335
17.4804	-46.4429	90.374
17.4819	-34.5008	90.4131
17.48427	-32.3717	90.4229