File: data/processed_data_files/tensile/0.254_solid_uprint_typeiv_4545_r(4).dat
MTS793|BTW|ENU|1|2|.|/|:|1|0|0|A

Data Header:			0.254_solid_uprint_typeiv_4545_r0			Time:	20.0168	s	4/13/2019 6:53:58 PM
Data Acquisition:	Timed
Station Name:	ft40.cfg
Test File Name:	Type IV_Monotonic.tst
Displacement	Force	Running Time
mm	N	s
-40.0461	-257.691	0.0217285
-40.0449	-260.923	0.0900879
-40.0404	-254.633	0.158447
-40.0327	-248.838	0.226807
-40.0273	-246.78	0.295166
-40.0222	-243.517	0.363525
-40.0165	-239.586	0.431885
-40.0111	-240.6662	0.500244
-40.00605	-240.147	0.568604
-39.999	-233.894	0.636963
-39.9934	-228.668	0.705322
-39.9882	-226.531	0.773682
-39.9831	-220.7093	0.842041
-39.9773	-216.83	0.9104
-39.9709	-211.224	0.97876
-39.9663	-204.434	1.04712
-39.9595	-202.995	1.11548
-39.9541	-203.689	1.18384
-39.9487	-200.866	1.2522
-39.942	-197.2426	1.32056
-39.9374	-195.4436	1.388916
-39.9309	-192.777	1.45728
-39.9265	-185.987	1.52563
-39.9197	-181.861	1.59399
-39.9151	-173.724	1.66235
-39.9084	-169.025	1.73071
-39.9035	-165.336	1.79907
-39.8971	-167.8757	1.86743
-39.8909	-163.687	1.935791
-39.8864	-160.226	2.00415
-39.8806	-159.379	2.07251
-39.8742	-155.317	2.14087
-39.86837	-149.673	2.20923
-39.8629	-146.73	2.27759
-39.8568	-139.814	2.34595
-39.8519	-132.8764	2.41431
-39.8468	-131.874	2.482666
-39.8404	-130.596	2.55103
-39.83506	-124.173	2.61938
-39.82909	-121.197	2.68774
-39.8237	-122.302	2.7561
-39.817	-118.634	2.82446
-39.8115	-114.258	2.89282
-39.8061	-110.985	2.96118
-39.8008	-104.425	3.029541
-39.7947	-97.8997	3.0979
-39.7891	-96.0917	3.16626
-39.78299	-93.576	3.23462
-39.7773	-86.4594	3.30298
-39.7712	-85.047	3.37134
-39.7665	-84.5335	3.4397
-39.7606	-81.6857	3.50806
-39.7545	-78.4365	3.576416
-39.7491	-73.261	3.64478
-39.7449	-66.9076	3.71313
-39.7363	-63.8931	3.78149
-39.7324	-59.8697	3.84985
-39.7262	-54.788	3.91821
-39.72131	-49.0223	3.98657
-39.7139	-47.7368	4.05493
-39.7089	-46.4247	4.123291
-39.7031	-44.1127	4.19165
-39.6972	-42.8024	4.26001
-39.6929	-36.5577	4.32837
-39.687	-32.5651	4.39673
-39.6803	-27.443	4.46509
-39.6741	-25.1419	4.53345
-39.6691	-18.1795	4.60181
-39.6639	-12.9123	4.670166
-39.6574	-10.677	4.73853
-39.6524	-6.95043	4.80688
-39.6472	-6.95173	4.87524
-39.6415	-3.48647	4.9436
-39.6347	0.976439	5.01196
-39.6279	3.06028	5.08032
-39.6247	3.65632	5.14868
-39.6191	11.185	5.217041
-39.6126	18.7892	5.2854
-39.6061	23.4713	5.35376
-39.6004	25.6039	5.42212
-39.59576	29.36725	5.49048
-39.5888	30.6655	5.55884
-39.5832	35.605	5.6272
-39.5778	37.1449	5.69556
-39.57246	39.4897	5.763916
-39.5669	39.8656	5.83228
-39.5611	46.7488	5.90063
-39.554	55.5414	5.96899
-39.5495	57.3197	6.03735
-39.5437	62.40406	6.10571
-39.5381	67.5846	6.17407
-39.5312	69.1666	6.24243
-39.52597	72.3951	6.310791
-39.5216	74.2575	6.37915
-39.5152	75.9845	6.44751
-39.50951	75.86393	6.51587
-39.5043	84.274	6.58423
-39.4985	90.337	6.65259
-39.4935	92.4453	6.72095
-39.488	99.3686	6.78931
-39.4796	105.57	6.857666
-39.47496	105.3708	6.92603
-39.4698	110.64	6.99438
-39.4639	112.772	7.06274
-39.45882	111.251	7.1311
-39.4528	112.023	7.19946
-39.4474	120.069	7.26782
-39.4414	124.988	7.33618
-39.4365	126.906	7.404541
-39.4311	135.465	7.4729
-39.4239	139.694	7.54126
-39.4189	142.267	7.60962
-39.4133	145.823	7.67798
-39.4081	149.423	7.74634
-39.4006	147.227	7.8147
-39.3957	151.381	7.88306
-39.39106	156.478	7.951416
-39.386	160.314	8.01978
-39.3793	162.682	8.08813
-39.3722	168.181	8.15649
-39.3675	173.825	8.22485
-39.3631	179.148	8.29321
-39.3558	181.816	8.36157
-39.3496	182.322	8.42993
-39.3444	183.14	8.498291
-39.3397	186.182	8.56665
-39.3335	190.9606	8.63501
-39.3275	192.252	8.70337
-39.322	196.882	8.77173
-39.31628	203.5137	8.84009
-39.3106	207.425	8.90845
-39.305	213.172	8.97681
-39.2993	218.5934	9.045166
-39.29509	219.081	9.11353
-39.288	219.595	9.18188
-39.2817	224.3273	9.25024
-39.275	226.468	9.3186
-39.2708	228.133	9.38696
-39.2644	232.25	9.45532
-39.2597	236.409	9.52368
-39.2541	241.069	9.592041
-39.2482	249.873	9.6604
-39.242	252.051	9.72876
-39.2372	253.151	9.79712
-39.231	255.979	9.86548
-39.2245	261.972	9.93384
-39.2201	260.642	10.0022
-39.2146	263.1713	10.0706
-39.209	268.53	10.1389
-39.202	269.54	10.2073
-39.1963	274.691	10.2756
-39.1908	282.429	10.344
-39.1849	285.644	10.4124
-39.1801	286.3103	10.4807
-39.1733	292.086	10.5491
-39.1675	297.065	10.6174
-39.162	296.992	10.6858
-39.1567	299.22	10.75415
-39.1503	301.913	10.82251
-39.1456	303.987	10.8909
-39.141	308.774	10.9592
-39.1344	314.608	11.0276
-39.1274	317.789	11.0959
-39.1219	321.181	11.1643
-39.117	327.97	11.2327
-39.1108	331.365	11.301
-39.1054	330.218	11.3694
-39.1005	332.769	11.4377
-39.0942	335.611	11.5061
-39.0887	337.151	11.5745
-39.083	340.084	11.6428
-39.0766	345.604	11.7112
-39.0717	348.329	11.7795
-39.0673	352.2207	11.8479
-39.0603	360.76	11.91626
-39.0541	363.259	11.9846
-39.048	365.517	12.053
-39.0433	367.129	12.1213
-39.0359	367.025	12.1897
-39.03241	369.915	12.2581
-39.0254	372.653	12.3264
-39.02	374.852	12.3948
-39.0134	377.288	12.4631
-39.009	384.428	12.5315
-39.00412	392.329	12.5999
-38.9985	393.374	12.6682
-38.9902	397.014	12.7366
-38.9868	398.803	12.8049
-38.9801	399.244	12.8733
-38.9749	402.347	12.94165
-38.9688	404.262	13.01001
-38.9631	404.943	13.0784
-38.9583	409.452	13.1467
-38.9514	415.003	13.2151
-38.9462	420.46	13.2834
-38.9402	422.832	13.3518
-38.9358	428.99	13.4202
-38.9289	431.498	13.4885
-38.9241	431.75	13.5569
-38.9172	436.368	13.6252
-38.9117	436.792	13.6936
-38.9068	434.233	13.762
-38.9019	438.799	13.8303
-38.8953	444.96	13.8987
-38.8892	446.93	13.967
-38.8835	452.4035	14.0354
-38.8778	458.182	14.10376
-38.8722	460.001	14.1721
-38.8651	462.31	14.2405
-38.8613	465.07	14.3088
-38.8552	464.884	14.3772
-38.85004	462.519	14.4456
-38.8434	465.803	14.5139
-38.838	474.17	14.5823
-38.8324	474.896	14.6506
-38.8272	478.05	14.719
-38.821	485.271	14.7874
-38.8162	486.749	14.8557
-38.8089	489.618	14.9241
-38.8034	495.03	14.9924
-38.7975	493.623	15.0608
-38.79285	490.208	15.12915
-38.7867	496.01	15.19751
-38.7809	498.637	15.2659
-38.7754	501.37	15.3342
-38.77	505.703	15.4026
-38.7647	509.954	15.4709
-38.7573	513.709	15.5393
-38.7524	517.2511	15.6077
-38.7464	518.75	15.676
-38.7406	519.781	15.7444
-38.7356	517.351	15.8127
-38.7303	522.122	15.8811
-38.7236	523.302	15.9495
-38.7182	522.426	16.0178
-38.7119	526.251	16.0862
-38.7072	532.6	16.1545
-38.7015	536.216	16.2229
-38.695	542.899	16.29126
-38.6898	543.561	16.3596
-38.6843	540.879	16.428
-38.6776	542.328	16.4963
-38.672	543.758	16.5647
-38.6667	543.854	16.6331
-38.6626	544.951	16.7014
-38.6553	547.141	16.7698
-38.6505	550.35	16.8381
-38.6451	555.861	16.9065
-38.6386	559.824	16.9749
-38.633	559.984	17.0432
-38.628	561.344	17.1116
-38.6216	564.4137	17.1799
-38.61628	563.545	17.2483
-38.6098	562.597	17.31665
-38.6047	562.656	17.38501
-38.59771	564.812	17.4534
-38.5925	565.85	17.5217
-38.5876	570.988	17.5901
-38.5815	573.825	17.6584
-38.5757	573.95	17.7268
-38.5707	574.922	17.7952
-38.5646	578.542	17.8635
-38.55809	577.623	17.9319
-38.5529	576.25	18.0002
-38.5475	578.373	18.0686
-38.5409	574.742	18.137
-38.5349	577.5777	18.2053
-38.5299	581.261	18.2737
-38.5254	581.668	18.342
-38.5188	580.807	18.4104
-38.5133	583.38	18.47876
-38.5074	588.9986	18.5471
-38.5011	585.588	18.6155
-38.4961	583.569	18.6838
-38.4903	585.546	18.7522
-38.4832	579.913	18.8206
-38.4794	582.57	18.8889
-38.4737	583.484	18.9573
-38.4675	584.486	19.0256
-38.462	582.625	19.094
-38.4566	589.188	19.1624
-38.45015	590.969	19.2307
-38.4454	588.17	19.2991
-38.4386	586.9115	19.3674
-38.4331	585.047	19.4358
-38.4266	582.375	19.50415
-38.4223	582.462	19.57251
-38.416	582.415	19.6409
-38.411	582.003	19.7092
-38.4048	579.635	19.7776
-38.3994	585.509	19.8459
-38.3931	587.841	19.9143
-38.3877	585.567	19.9827
-38.3855	578.703	20.012

Data Header:			0.254_solid_uprint_typeiv_4545_r0			Time:	40.0166	s	4/13/2019 6:54:18 PM
Data Acquisition:	Timed
Station Name:	ft40.cfg
Test File Name:	Type IV_Monotonic.tst
Displacement	Force	Running Time
mm	N	s
-38.38393	580.862	20.0217
-38.3782	583.891	20.0901
-38.3726	583.061	20.1584
-38.3678	582.647	20.2268
-38.3619	584.552	20.2952
-38.3567	586.9	20.3635
-38.35	581.321	20.4319
-38.3447	580.003	20.5002
-38.3392	578.097	20.5686
-38.3325	575.1665	20.637
-38.3281	575.802	20.7053
-38.322	579.353	20.7737
-38.3153	579.117	20.842
-38.3102	575.779	20.9104
-38.3053	581.208	20.97876
-38.299	582.277	21.0471
-38.2938	579.11	21.1155
-38.2879	575.788	21.1838
-38.28233	577.132	21.2522
-38.2757	572.614	21.3206
-38.2706	573.3703	21.3889
-38.2648	571.985	21.4573
-38.259	571.823	21.5256
-38.2534	572.536	21.594
-38.2479	576.739	21.6624
-38.2425	577.319	21.7307
-38.2361	575.87	21.7991
-38.2313	575.486	21.8674
-38.2254	572.5022	21.9358
-38.2202	570.417	22.00415
-38.21384	569.975	22.07251
-38.2081	568.29	22.1409
-38.2023	564.916	22.2092
-38.1972	567.802	22.2776
-38.19099	574.162	22.3459
-38.1847	573.447	22.4143
-38.1801	573.115	22.4827
-38.1746	571.849	22.551
-38.1672	569.433	22.6194
-38.163	570.096	22.6877
-38.1555	567.938	22.7561
-38.1507	564.607	22.8245
-38.1448	563.533	22.8928
-38.139	565.856	22.9612
-38.1334	567.951	23.0295
-38.1276	569.082	23.0979
-38.1235	569.717	23.16626
-38.1172	569.979	23.2346
-38.1112	568.846	23.303
-38.1057	568.4693	23.3713
-38.0988	566.4599	23.4397
-38.09388	561.974	23.5081
-38.0882	560.84	23.5764
-38.0819	563.797	23.6448
-38.0764	562.756	23.7131
-38.0714	564.6615	23.7815
-38.0655	568.48	23.8499
-38.0608	566.312	23.9182
-38.0536	566.359	23.9866
-38.0474	567.326	24.0549
-38.0421	563.963	24.1233
-38.0369	558.947	24.19165
-38.0316	558.404	24.26001
-38.0262	561.424	24.3284
-38.0202	560.437	24.3967
-38.0133	561.392	24.4651
-38.008	564.153	24.5334
-38.002	564.657	24.6018
-37.9978	565.145	24.6702
-37.9918	566.4129	24.7385
-37.9848	562.267	24.8069
-37.9811	558.374	24.8752
-37.9736	559.036	24.9436
-37.9683	559.98	25.012
-37.9625	556.298	25.0803
-37.9579	559.441	25.1487
-37.9526	561.821	25.217
-37.94558	562.129	25.2854
-37.9402	563.6	25.35376
-37.9346	565.562	25.4221
-37.9281	562.499	25.4905
-37.9219	559.272	25.5588
-37.9182	560.049	25.6272
-37.9119	557.287	25.6956
-37.9054	552.579	25.7639
-37.9005	556.406	25.8323
-37.8948	557.574	25.9006
-37.889	559.841	25.969
-37.8844	561.002	26.0374
-37.8779	562.271	26.1057
-37.8709	561.13	26.1741
-37.8665	556.777	26.2424
-37.8604	558.983	26.3108
-37.854	556.261	26.37915
-37.8483	553.579	26.44751
-37.8427	554.06	26.5159
-37.8384	553.789	26.5842
-37.83194	556.582	26.6526
-37.82663	558.7666	26.7209
-37.8214	559.597	26.7893
-37.8148	557.743	26.8577
-37.8096	557.9	26.926
-37.8028	558.417	26.9944
-37.7989	555.273	27.0627
-37.7928	554.308	27.1311
-37.7859	552.758	27.1995
-37.7806	551.36	27.2678
-37.7741	555.425	27.3362
-37.7693	556.466	27.4045
-37.7635	555.292	27.4729
-37.75787	556.138	27.54126
-37.7509	559.2077	27.6096
-37.7464	557.138	27.678
-37.7406	554.18	27.7463
-37.735	554.712	27.8147
-37.7289	552.112	27.8831
-37.7244	549.932	27.9514
-37.7184	553.269	28.0198
-37.7131	553.495	28.0881
-37.7071	552.222	28.1565
-37.7005	555.375	28.2249
-37.696	557.891	28.2932
-37.6893	555.778	28.3616
-37.6837	554.114	28.4299
-37.6773	555.1	28.4983
-37.6725	550.899	28.56665
-37.6662	550.627	28.63501
-37.66114	551.307	28.7034
-37.6551	551.853	28.7717
-37.6488	549.441	28.8401
-37.6437	552.519	28.9084
-37.6381	556.817	28.9768
-37.6323	556.575	29.0452
-37.6264	554.532	29.1135
-37.6195	555.124	29.1819
-37.6154	551.193	29.2502
-37.6091	551.308	29.3186
-37.6032	551.515	29.387
-37.5999	548.482	29.4553
-37.5916	547.2254	29.5237
-37.5867	551.255	29.592
-37.5812	552.678	29.6604
-37.5765	553.696	29.72876
-37.5697	553.883	29.7971
-37.5638	554.169	29.8655
-37.5588	549.989	29.9338
-37.5527	549.971	30.0022
-37.5478	549.708	30.0706
-37.5406	547.204	30.1389
-37.5351	544.205	30.2073
-37.52956	548.233	30.2756
-37.5241	553.597	30.344
-37.5184	551.642	30.4124
-37.5128	552.531	30.4807
-37.5072	552.815	30.5491
-37.5014	552.9314	30.6174
-37.4962	551.682	30.6858
-37.4895	548.36	30.75415
-37.4832	545.182	30.82251
-37.4789	543.952	30.8909
-37.474	547.997	30.9592
-37.4672	549.72	31.0276
-37.4617	549.857	31.0959
-37.4562	552.503	31.1643
-37.4503	550.255	31.2327
-37.44379	551.261	31.301
-37.4374	552.166	31.3694
-37.4335	548.199	31.4377
-37.4268	544.198	31.5061
-37.421	543.998	31.5745
-37.4162	546.404	31.6428
-37.4109	546.793	31.7112
-37.4048	548.959	31.7795
-37.3978	549.315	31.8479
-37.3937	549.703	31.91626
-37.3858	552.712	31.9846
-37.3827	551.226	32.053
-37.3752	547.5484	32.1213
-37.3693	544.636	32.1897
-37.3637	544.761	32.2581
-37.3592	544.7757	32.3264
-37.3532	541.671	32.3948
-37.348	545.963	32.4631
-37.3426	548.07	32.5315
-37.3357	548.185	32.5999
-37.3308	551.024	32.6682
-37.3254	553.835	32.7366
-37.3199	547.0293	32.8049
-37.3136	545.248	32.8733
-37.3062	546.326	32.94165
-37.3018	543.9552	33.01001
-37.2969	540.801	33.0784
-37.2906	544.528	33.1467
-37.2866	545.841	33.2151
-37.2801	546.938	33.2834
-37.27306	549.483	33.3518
-37.2689	551.475	33.4202
-37.2631	546.41	33.4885
-37.2564	544.469	33.5569
-37.24958	547.267	33.6252
-37.2455	543.337	33.6936
-37.2402	538.976	33.762
-37.2334	543.088	33.8303
-37.2275	543.355	33.8987
-37.22271	545.65	33.967
-37.217	546.401	34.0354
-37.2103	549.205	34.10376
-37.2053	544.652	34.1721
-37.1996	546.112	34.2405
-37.194	547.094	34.3088
-37.1873	544.376	34.3772
-37.1829	540.166	34.4456
-37.1765	540.462	34.5139
-37.1714	541.155	34.5823
-37.1665	541.852	34.6506
-37.1601	546.057	34.719
-37.1539	545.499	34.7874
-37.1476	546.204	34.8557
-37.1425	546.411	34.9241
-37.1373	547.004	34.9924
-37.13113	542.987	35.0608
-37.1257	542.475	35.12915
-37.11927	539.415	35.19751
-37.1154	538.755	35.2659
-37.1091	540.657	35.3342
-37.1031	541.922	35.4026
-37.0976	540.919	35.4709
-37.0908	542.153	35.5393
-37.0864	547.413	35.6077
-37.0797	545.444	35.676
-37.0741	543.5993	35.7444
-37.0683	542.2547	35.8127
-37.0615	540.8255	35.8811
-37.05759	540.394	35.9495
-37.052	538.963	36.0178
-37.04594	539.883	36.0862
-37.0408	538.6651	36.1545
-37.0342	539.973	36.2229
-37.02869	544.523	36.29126
-37.0226	542.937	36.3596
-37.0184	542.586	36.428
-37.0123	542.551	36.4963
-37.00584	538.152	36.5647
-37.0006	536.791	36.6331
-36.9953	537.942	36.7014
-36.9885	537.019	36.7698
-36.984	535.439	36.8381
-36.9781	536.812	36.9065
-36.97073	542.693	36.9749
-36.9654	542.538	37.0432
-36.9601	542.488	37.1116
-36.9543	542.96	37.1799
-36.9498	538.14	37.2483
-36.9429	537.4574	37.31665
-36.9385	535.911	37.38501
-36.9317	534.9342	37.4534
-36.9259	533.005	37.5217
-36.9194	535.6972	37.5901
-36.9151	540.012	37.6584
-36.9091	538.459	37.7268
-36.904	538.611	37.7952
-36.8986	541.277	37.8635
-36.8913	538.117	37.9319
-36.8867	537.418	38.0002
-36.8811	536.1167	38.0686
-36.8748	531.729	38.137
-36.8701	529.019	38.2053
-36.864	533.192	38.2737
-36.8574	536.042	38.342
-36.8522	534.073	38.4104
-36.84713	534.995	38.47876
-36.8401	536.333	38.5471
-36.8355	532.7041	38.6155
-36.8296	531.823	38.6838
-36.8233	527.923	38.7522
-36.8144	-12.3858	38.8206
-36.8121	-46.9818	38.8889
-36.80592	-43.4522	38.9573
-36.8006	-43.0312	39.0256
-36.7952	-41.6621	39.094
-36.7895	-39.1453	39.1624
-36.78384	-38.7962	39.2307
-36.778	-37.5047	39.2991
-36.771	-37.6453	39.3674
-36.7662	-40.5364	39.4358
-36.7617	-45.0996	39.50415
-36.7544	-45.3741	39.57251
-36.7496	-44.3136	39.6409
-36.7442	-42.8223	39.7092
-36.7383	-41.9033	39.7776
-36.7327	-39.0522	39.8459
-36.7268	-38.5005	39.9143
-36.7207	-38.38858	39.9827
-36.71833	-43.9332	40.012

Data Header:			0.254_solid_uprint_typeiv_4545_r0			Time:	40.792	s	4/13/2019 6:54:19 PM
Data Acquisition:	Timed
Station Name:	ft40.cfg
Test File Name:	Type IV_Monotonic.tst
Displacement	Force	Running Time
mm	N	s
-36.7179	-46.6049	40.0217
-36.71698	-40.9946	40.0315
-36.7171	-38.0444	40.04126
-36.7148	-35.32	40.051
-36.7139	-41.362	40.0608
-36.7137	-47.7537	40.0706
-36.7122	-42.5904	40.0803
-36.7113	-40.5561	40.0901
-36.7112	-37.67514	40.0999
-36.7092	-37.99416	40.1096
-36.7098	-41.0922	40.1194
-36.7084	-41.1395	40.12915
-36.7077	-47.2233	40.1389
-36.7082	-42.2926	40.1487
-36.7064	-38.9578	40.1584
-36.7057	-37.0021	40.1682
-36.70417	-38.5924	40.178
-36.7028	-44.22324	40.1877
-36.7038	-45.3588	40.19751
-36.7024	-42.4955	40.2073
-36.7023	-39.4905	40.217
-36.7008	-38.707	40.2268
-36.6998	-39.5296	40.2366
-36.6994	-41.1142	40.2463
-36.6989	-43.9471	40.2561
-36.6982	-43.6723	40.2659
-36.6966	-42.6508	40.2756
-36.6955	-38.471	40.2854
-36.6949	-37.61726	40.2952
-36.6948	-41.0195	40.3049
-36.6936	-42.669	40.3147
-36.6918	-42.4928	40.3245
-36.6911	-41.8401	40.3342
-36.6908	-42.089	40.344
-36.6901	-40.7295	40.35376
-36.6886	-37.2759	40.3635
-36.6875	-39.2796	40.3733
-36.687	-41.8053	40.3831
-36.68623	-43.7524	40.3928
-36.686	-42.23069	40.4026
-36.6858	-37.3885	40.4124
-36.6838	-39.7934	40.4221
-36.6839	-39.3655	40.4319
-36.68277	-42.3614	40.44165
-36.6814	-43.6747	40.4514
-36.681	-43.1946	40.4612
-36.6814	-42.7912	40.4709
-36.6793	-38.65551	40.4807
-36.6786	-37.2319	40.4905
-36.6769	-40.32655	40.5002
-36.676	-43.4554	40.51001
-36.6763	-45.8433	40.5198
-36.6747	-39.2887	40.5295
-36.6744	-39.0881	40.5393
-36.674	-37.8375	40.5491
-36.6738	-38.8788	40.5588
-36.672	-42.40683	40.5686
-36.6712	-42.9841	40.5784
-36.6705	-46.4519	40.5881
-36.6698	-42.02742	40.5979
-36.6675	-36.2204	40.6077
-36.6677	-38.1034	40.6174
-36.6673	-43.2535	40.6272
-36.6673	-46.112	40.637
-36.6664	-42.3084	40.6467
-36.6656	-40.4971	40.6565
-36.66423	-37.9049	40.66626
-36.6645	-37.761	40.676
-36.6629	-39.59082	40.6858
-36.66106	-45.0196	40.6956
-36.6615	-45.4109	40.7053
-36.66	-42.2763	40.7151
-36.6603	-38.4274	40.7249
-36.6592	-36.57	40.7346
-36.6569	-39.6757	40.7444
-36.65683	-44.2096	40.75415
-36.6562	-43.5758	40.7639
-36.6548	-43.116	40.7737
-36.6543	-37.90966	40.7834