File: data/processed_data_files/tensile/0.254_solid_uprint_typei_4545_r(2).dat
MTS793|BTW|ENU|1|2|.|/|:|1|0|0|A

Data Header:			0.254_solid_uprint_typei_4545_r0			Time:	20.0181	s	4/14/2019 4:20:54 AM
Data Acquisition:	Timed
Station Name:	ft40.cfg
Test File Name:	monotonic_0.2540_typei_solid_4545_uprint.tst
Displacement	Force	Running Time
mm	N	s
9.95688	-140.096	0.0231934
9.95704	-138.642	0.0915527
9.96223	-130.742	0.159912
9.96894	-120.797	0.228271
9.97457	-118.226	0.296631
9.97919	-113.884	0.36499
9.98439	-110.998	0.43335
9.9909	-109.664	0.501709
9.99695	-115.102	0.570068
10.0023	-115.411	0.638428
10.0083	-113.6614	0.706787
10.0141	-111.412	0.775146
10.0194	-105.175	0.843506
10.0259	-96.1758	0.911865
10.0311	-91.2252	0.980225
10.0359	-86.703	1.048584
10.0424	-76.7383	1.11694
10.0478	-76.38353	1.1853
10.0536	-80.186	1.25366
10.0583	-79.7879	1.32202
10.0647	-80.7615	1.39038
10.0705	-79.3362	1.45874
10.0768	-74.7435	1.5271
10.0827	-67.8899	1.595459
10.0877	-61.9112	1.66382
10.0931	-53.7072	1.73218
10.0997	-43.9941	1.80054
10.1055	-42.6522	1.8689
10.1114	-41.6917	1.93726
10.1171	-41.4472	2.00562
10.123	-45.4784	2.07397
10.1275	-42.6212	2.142334
10.1331	-41.2864	2.21069
10.1393	-37.4889	2.27905
10.14428	-30.9847	2.34741
10.1506	-23.4656	2.41577
10.1567	-12.1963	2.48413
10.1617	-8.44807	2.55249
10.1669	-5.67388	2.62085
10.1725	-5.62534	2.689209
10.1791	-7.21652	2.75757
10.1838	-6.32405	2.82593
10.1902	-7.71634	2.89429
10.1959	-5.2071	2.96265
10.2007	-0.314663	3.03101
10.2076	10.6792	3.09937
10.2137	19.3157	3.16772
10.2187	24.6412	3.236084
10.2244	30.9376	3.30444
10.2297	30.72472	3.3728
10.2356	33.0039	3.44116
10.2413	31.4411	3.50952
10.2477	29.4653	3.57788
10.2531	29.6256	3.64624
10.2586	34.1043	3.7146
10.2646	43.4318	3.782959
10.2696	49.7498	3.85132
10.2752	57.2664	3.91968
10.2812	64.9599	3.98804
10.2879	66.6332	4.0564
10.2932	70.1794	4.12476
10.29737	71.582	4.19312
10.3044	66.0297	4.26147
10.31015	64.9356	4.329834
10.3159	69.2961	4.39819
10.3208	75.338	4.46655
10.3272	81.6652	4.53491
10.33294	91.163	4.60327
10.33725	100.342	4.67163
10.3449	103.338	4.73999
10.3501	109.812	4.80835
10.356	111.063	4.876709
10.36127	104.419	4.94507
10.3678	103.042	5.01343
10.3712	106.283	5.08179
10.3785	110.002	5.15015
10.3837	113.824	5.21851
10.3891	122.746	5.28687
10.39508	134.1196	5.35522
10.4008	137.7612	5.423584
10.4072	146.397	5.49194
10.4113	150.221	5.5603
10.4187	144.758	5.62866
10.4246	141.194	5.69702
10.43	144.851	5.76538
10.435	145.805	5.83374
10.4391	146.707	5.9021
10.4458	155.6342	5.970459
10.4528	164.211	6.03882
10.4575	170.897	6.10718
10.464	180.9276	6.17554
10.4697	185.646	6.2439
10.4756	184.352	6.31226
10.4808	182.597	6.38062
10.4862	185.424	6.44897
10.4922	180.539	6.517334
10.4978	180.227	6.58569
10.5038	187.9543	6.65405
10.5102	195.249	6.72241
10.5141	204.03	6.79077
10.5207	216.497	6.85913
10.526	221.451	6.92749
10.5322	219.225	6.99585
10.5379	221.0085	7.064209
10.5441	222.897	7.13257
10.5492	218.612	7.20093
10.5552	218.031	7.26929
10.561	223.033	7.33765
10.5664	227.19	7.40601
10.5717	235.303	7.47437
10.5774	247.326	7.54272
10.5831	254.381	7.611084
10.5883	255.464	7.67944
10.5939	258.022	7.7478
10.6001	262.588	7.81616
10.6059	256.747	7.88452
10.6111	255.662	7.95288
10.6185	257.474	8.02124
10.6225	260.4	8.0896
10.6279	268.474	8.157959
10.6337	276.828	8.22632
10.6393	285.196	8.29468
10.6457	289.198	8.36304
10.6513	296.138	8.4314
10.6569	298.692	8.49976
10.6629	295.429	8.56812
10.668	292.236	8.63647
10.6744	291.523	8.704834
10.6797	295.425	8.77319
10.6857	300.29	8.84155
10.6908	306.27	8.90991
10.6974	314.323	8.97827
10.7031	321.925	9.04663
10.7084	332.308	9.11499
10.7143	335.886	9.18335
10.7194	333.494	9.251709
10.7258	332.842	9.32007
10.7313	331.807	9.38843
10.7369	331.773	9.45679
10.7428	332.606	9.52515
10.7484	336.874	9.59351
10.7532	342.311	9.66187
10.7599	351.676	9.73022
10.767	362.196	9.798584
10.7708	369.643	9.86694
10.7769	372.907	9.9353
10.7823	372.31	10.0037
10.7878	369.512	10.072
10.7937	370.045	10.1404
10.8	368.372	10.20874
10.805	368.6738	10.2771
10.8106	371.467	10.3455
10.8153	383.79	10.4138
10.82333	392.7272	10.4822
10.8283	400.126	10.5505
10.8338	407.124	10.6189
10.83885	408.761	10.6873
10.8452	408.763	10.7556
10.8516	407.289	10.824
10.8567	404.166	10.8923
10.8627	400.638	10.9607
10.86692	402.218	11.0291
10.8734	412.702	11.0974
10.8795	421.805	11.1658
10.8849	430.5	11.2341
10.8904	439.354	11.30249
10.8966	444.403	11.37085
10.902	444.393	11.4392
10.9069	445.577	11.5076
10.9125	443.5	11.5759
10.91924	436.63	11.6443
10.9247	438.737	11.7126
10.9311	443.829	11.781
10.936	449.372	11.8494
10.9418	457.687	11.9177
10.9464	469.9252	11.9861
10.9529	477.185	12.0544
10.9589	480.348	12.1228
10.9643	483.076	12.1912
10.9708	480.43	12.2595
10.9767	473.648	12.3279
10.9816	470.299	12.39624
10.9878	475.102	12.4646
10.9926	477.804	12.533
10.9997	485.547	12.6013
11.0048	497.191	12.6697
11.0102	505.243	12.738
11.0145	512.263	12.8064
11.0216	518.326	12.8748
11.0268	515.941	12.9431
11.0336	508.826	13.0115
11.0381	506.761	13.0798
11.0442	509.764	13.1482
11.0501	509.394	13.2166
11.056	512.93	13.2849
11.06096	527.075	13.3533
11.0672	534.166	13.4216
11.0721	544.078	13.48999
11.0784	551.265	13.55835
11.0844	551.491	13.6267
11.08981	546.351	13.6951
11.0961	544.188	13.7634
11.102	542.29	13.8318
11.1064	540.926	13.9001
11.1126	541.679	13.9685
11.1177	551.858	14.0369
11.1245	558.581	14.1052
11.1294	570.766	14.1736
11.1356	579.493	14.2419
11.1415	582.4726	14.3103
11.1467	579.74	14.3787
11.1532	577.776	14.447
11.1584	577.579	14.5154
11.1635	573.293	14.58374
11.17047	571.841	14.6521
11.1752	578.638	14.7205
11.1808	586.431	14.7888
11.1855	596.691	14.8572
11.1916	607.168	14.9255
11.1978	611.67	14.9939
11.2034	611.952	15.0623
11.2096	615.258	15.1306
11.214	611.91	15.199
11.2205	607.32	15.2673
11.2271	604.075	15.3357
11.2324	605.507	15.4041
11.2376	612.743	15.4724
11.2429	624.686	15.5408
11.2486	634.763	15.6091
11.2546	638.791	15.67749
11.2612	645.317	15.74585
11.26546	648.335	15.8142
11.2718	645.53	15.8826
11.2784	641.078	15.9509
11.2836	635.899	16.0193
11.2897	635.089	16.0876
11.2951	640.9317	16.156
11.301	647.799	16.2244
11.3069	656.015	16.2927
11.3122	663.42	16.3611
11.3189	672.083	16.4294
11.3234	678.647	16.4978
11.328	676.436	16.5662
11.3346	674.076	16.6345
11.3391	669.468	16.7029
11.3463	664.827	16.77124
11.3506	670.8158	16.8396
11.3568	674.48	16.908
11.3624	678.361	16.9763
11.3689	688.3457	17.0447
11.3743	698.497	17.113
11.3803	706.036	17.1814
11.386	707.256	17.2498
11.3916	706.235	17.3181
11.3974	703.224	17.3865
11.4028	695.826	17.4548
11.4089	696.605	17.5232
11.41411	699.8028	17.5916
11.4197	703.875	17.6599
11.42486	710.391	17.7283
11.4311	723.731	17.7966
11.4356	732.5191	17.86499
11.4425	734.249	17.93335
11.4486	737.049	18.0017
11.4541	735.172	18.0701
11.45972	727.663	18.1384
11.466	727.403	18.2068
11.47077	727.082	18.2751
11.4774	728.582	18.3435
11.4837	733.773	18.4119
11.4876	745.224	18.4802
11.4937	753.308	18.5486
11.4996	760.035	18.6169
11.5052	765.768	18.6853
11.5106	765.249	18.7537
11.517	759.623	18.822
11.5223	757.522	18.8904
11.5285	754.914	18.95874
11.5341	752.02	19.0271
11.5402	755.506	19.0955
11.5461	767.8584	19.1638
11.55121	776.197	19.2322
11.5572	782.013	19.3005
11.5628	789.475	19.3689
11.56848	790.724	19.4373
11.57299	788.238	19.5056
11.581	786.943	19.574
11.5852	784.061	19.6423
11.59042	777.546	19.7107
11.5974	778.695	19.7791
11.60275	789.25	19.8474
11.6073	795.134	19.9158
11.6137	802.349	19.9841
11.6158	798.163	20.0134

Data Header:			0.254_solid_uprint_typei_4545_r0			Time:	40.019	s	4/14/2019 4:21:14 AM
Data Acquisition:	Timed
Station Name:	ft40.cfg
Test File Name:	monotonic_0.2540_typei_solid_4545_uprint.tst
Displacement	Force	Running Time
mm	N	s
11.6171	791.7804	20.0232
11.6228	794.728	20.0916
11.6284	796.814	20.1599
11.6333	805.037	20.2283
11.6394	816.114	20.2966
11.6461	823.758	20.36499
11.6519	824.6991	20.43335
11.65675	827.887	20.5017
11.6626	823.845	20.5701
11.6674	817.959	20.6384
11.6742	817.444	20.7068
11.6792	817.995	20.7751
11.6864	817.056	20.8435
11.6904	821.928	20.9119
11.6956	836.701	20.9802
11.70137	843.93	21.0486
11.7081	847.051	21.1169
11.714	851.131	21.1853
11.7196	851.314	21.2537
11.7257	844.096	21.322
11.7309	842.9566	21.3904
11.7363	843.041	21.45874
11.7422	839.074	21.5271
11.7486	842.4	21.5955
11.75379	853.125	21.6638
11.7589	860.536	21.7322
11.7647	866.233	21.8005
11.7698	873.88	21.8689
11.7758	875.367	21.9373
11.783	871.961	22.0056
11.788	869.521	22.074
11.7941	864.609	22.1423
11.7983	860.772	22.2107
11.8051	861.807	22.2791
11.8103	870.159	22.3474
11.8166	878.972	22.4158
11.8207	882.292	22.4841
11.8275	892.391	22.55249
11.8332	896.2558	22.62085
11.8388	895.818	22.6892
11.8448	891.202	22.7576
11.851	890.484	22.8259
11.85652	882.653	22.8943
11.86127	880.31	22.9626
11.867	888.211	23.031
11.8724	893.367	23.0994
11.8792	898.913	23.1677
11.8847	909.132	23.2361
11.8907	912.898	23.3044
11.8967	916.038	23.3728
11.9022	915.112	23.4412
11.9074	911.43	23.5095
11.9132	905.3877	23.5779
11.918	902.811	23.64624
11.9251	907.043	23.7146
11.9305	908.2	23.783
11.936	913.875	23.8513
11.9417	922.548	23.9197
11.9478	929.372	23.988
11.95366	935.014	24.0564
11.9593	934.8313	24.1248
11.9644	930.785	24.1931
11.9699	924.268	24.2615
11.9755	921.678	24.3298
11.9812	922.401	24.3982
11.9875	921.787	24.4666
11.9925	926.299	24.5349
11.9975	934.1499	24.6033
12.0046	941.451	24.6716
12.0101	949.475	24.73999
12.0158	951.673	24.80835
12.0203	949.217	24.8767
12.0266	943.419	24.9451
12.03218	940.605	25.0134
12.03732	937.9845	25.0818
12.0447	935.6969	25.1501
12.0497	939.1554	25.2185
12.0549	945.787	25.2869
12.0607	952.444	25.3552
12.0669	963.629	25.4236
12.0728	965.656	25.4919
12.0784	964.452	25.5603
12.08411	961.093	25.6287
12.08924	960.541	25.697
12.09488	955.222	25.7654
12.1009	951.184	25.83374
12.1059	953.141	25.9021
12.1119	956.78	25.9705
12.1179	961.83	26.0388
12.1238	972.035	26.1072
12.1297	978.216	26.1755
12.1344	977.666	26.2439
12.1406	977.687	26.3123
12.14717	978.297	26.3806
12.1514	970.832	26.449
12.1576	963.65	26.5173
12.1635	965.849	26.5857
12.1684	967.065	26.6541
12.1754	971.239	26.7224
12.1806	980.456	26.7908
12.18592	986.915	26.8591
12.1915	987.152	26.92749
12.19764	988.485	26.99585
12.2037	993.321	27.0642
12.21	984.832	27.1326
12.2151	979.4505	27.2009
12.2193	976.957	27.2693
12.22625	974.952	27.3376
12.2319	977.612	27.406
12.2378	985.121	27.4744
12.2433	991.8797	27.5427
12.2481	995.001	27.6111
12.2556	998.62	27.6794
12.2608	1003.19	27.7478
12.2659	998.672	27.8162
12.2717	990.539	27.8845
12.27852	988.447	27.9529
12.2824	983.207	28.02124
12.2892	984.492	28.0896
12.2942	990.046	28.158
12.3004	996.77	28.2263
12.3058	1000.35	28.2947
12.3115	1004.82	28.363
12.3162	1010.72	28.4314
12.324	1007.67	28.4998
12.328	1001.13	28.5681
12.3344	998.612	28.6365
12.3392	993.42	28.7048
12.3455	991.577	28.7732
12.3515	994.817	28.8416
12.3565	996.901	28.9099
12.363	1000.36	28.9783
12.36861	1007.26	29.0466
12.37417	1016.403	29.11499
12.3796	1015.26	29.18335
12.3854	1011.18	29.2517
12.3904	1007.3	29.3201
12.3976	1002.993	29.3884
12.4024	999.916	29.4568
12.40836	998.938	29.5251
12.4142	999.524	29.5935
12.4193	1003.87	29.6619
12.4251	1010.02	29.7302
12.432	1019.66	29.7986
12.4374	1018.2	29.8669
12.4419	1019.24	29.9353
12.4475	1015.67	30.0037
12.45225	1010.78	30.072
12.45945	1008.49	30.1404
12.4651	1003.97	30.20874
12.4717	1001.909	30.2771
12.4771	1004.03	30.3455
12.4819	1010.93	30.4138
12.4885	1017.72	30.4822
12.4939	1021.37	30.5505
12.4998	1024.36	30.6189
12.5055	1021.5	30.6873
12.5097	1017.85	30.7556
12.5169	1014.722	30.824
12.5221	1009.38	30.8923
12.52692	1006.74	30.9607
12.5336	1005.67	31.0291
12.5393	1014.61	31.0974
12.5438	1017.37	31.1658
12.5516	1022.06	31.2341
12.557	1027.06	31.30249
12.5621	1025.95	31.37085
12.5677	1026.72	31.4392
12.5735	1023.59	31.5076
12.5799	1016.67	31.5759
12.5844	1009.65	31.6443
12.5907	1007.24	31.7126
12.5969	1014.61	31.781
12.6027	1015.64	31.8494
12.6076	1020.88	31.9177
12.61337	1027.74	31.9861
12.6194	1028.86	32.0544
12.6249	1028.75	32.1228
12.6301	1028.33	32.1912
12.6364	1023.27	32.2595
12.6417	1012.34	32.3279
12.6472	1010.51	32.39624
12.6528	1015.12	32.4646
12.6589	1015.48	32.533
12.6651	1018.14	32.6013
12.67086	1026.84	32.6697
12.67619	1031.04	32.738
12.6826	1031.6	32.8064
12.6877	1032.77	32.8748
12.6935	1027.837	32.9431
12.69797	1016.8	33.0115
12.7049	1014.12	33.0798
12.7109	1015.76	33.1482
12.7162	1013.84	33.2166
12.72166	1017.42	33.2849
12.7262	1024.97	33.3533
12.7325	1028.79	33.4216
12.7384	1032.44	33.48999
12.7445	1036.33	33.55835
12.7497	1032.58	33.6267
12.7551	1024.26	33.6951
12.7617	1018.314	33.7634
12.76748	1018.72	33.8318
12.77282	1015.3	33.9001
12.77876	1015.88	33.9685
12.7845	1022.75	34.0369
12.78978	1027.39	34.1052
12.7961	1032.15	34.1736
12.8015	1036.02	34.2419
12.8076	1035.58	34.3103
12.8132	1029.09	34.3787
12.8188	1023.73	34.447
12.8238	1023.678	34.5154
12.8299	1016.65	34.58374
12.8352	1016.17	34.6521
12.8408	1019.47	34.7205
12.847	1025.13	34.7888
12.853	1032.63	34.8572
12.8582	1035.514	34.9255
12.8637	1036.54	34.9939
12.8693	1031.94	35.0623
12.8754	1029.601	35.1306
12.8819	1025.13	35.199
12.8858	1018.42	35.2673
12.892	1015.61	35.3357
12.89791	1016.64	35.4041
12.9044	1022.37	35.4724
12.9095	1028.24	35.5408
12.9146	1034.4	35.6091
12.921	1036.03	35.67749
12.9274	1034.41	35.74585
12.932	1032.77	35.8142
12.9374	1029.01	35.8826
12.9437	1022.89	35.9509
12.95004	1018.36	36.0193
12.9544	1018.13	36.0876
12.95919	1020.48	36.156
12.9664	1026.11	36.2244
12.9722	1031.79	36.2927
12.9772	1033.48	36.3611
12.9836	1035.03	36.4294
12.9896	1036.6	36.4978
12.9947	1032.07	36.5662
13.0007	1026.83	36.6345
13.0053	1020.9	36.7029
13.0108	1017.46	36.77124
13.0177	1018.49	36.8396
13.0228	1022.99	36.908
13.028	1028.402	36.9763
13.03501	1032.49	37.0447
13.0396	1034.35	37.113
13.04687	1037.48	37.1814
13.0516	1035.96	37.2498
13.0579	1029.16	37.3181
13.06285	1027.04	37.3865
13.0696	1021.07	37.4548
13.0745	1017.95	37.5232
13.0802	1021.77	37.5916
13.0851	1025.47	37.6599
13.0896	1027.06	37.7283
13.0972	1031.98	37.7966
13.10288	1038.229	37.86499
13.1082	1036.64	37.93335
13.115	1033.53	38.0017
13.1192	1030.03	38.0701
13.126	1024.81	38.1384
13.132	1021.55	38.2068
13.1374	1020.42	38.2751
13.143	1023.96	38.3435
13.1479	1025.58	38.4119
13.155	1029.4	38.4802
13.15978	1038.162	38.5486
13.1657	1039.71	38.6169
13.1708	1034.09	38.6853
13.1778	1034.24	38.7537
13.183	1029.21	38.822
13.1889	1022.57	38.8904
13.1944	1020.88	38.95874
13.1999	1021.5	39.0271
13.206	1020.754	39.0955
13.2114	1024.95	39.1638
13.2165	1034.95	39.2322
13.2229	1038.19	39.3005
13.2284	1037.1	39.3689
13.2339	1036.395	39.4373
13.2393	1033.58	39.5056
13.2463	1026.85	39.574
13.2519	1022.57	39.6423
13.2569	1021.67	39.7107
13.2634	1020.05	39.7791
13.2686	1022.72	39.8474
13.2736	1030.58	39.9158
13.2801	1036.64	39.9841
13.2827	1022.465	40.0134

Data Header:			0.254_solid_uprint_typei_4545_r0			Time:	60.0178	s	4/14/2019 4:21:34 AM
Data Acquisition:	Timed
Station Name:	ft40.cfg
Test File Name:	monotonic_0.2540_typei_solid_4545_uprint.tst
Displacement	Force	Running Time
mm	N	s
13.2822	1017.83	40.0232
13.2881	1023.53	40.0916
13.29451	1028.73	40.1599
13.3002	1029.71	40.2283
13.30662	1032.5	40.2966
13.3112	1039.02	40.36499
13.3165	1037.96	40.43335
13.3229	1031.64	40.5017
13.3283	1029.61	40.5701
13.3337	1025.44	40.6384
13.3402	1018.39	40.7068
13.3456	1020.29	40.7751
13.35073	1025.53	40.8435
13.3574	1026.546	40.9119
13.3625	1029.39	40.9802
13.3683	1038.08	41.0486
13.3735	1039.65	41.1169
13.3799	1035.91	41.1853
13.3857	1032.93	41.2537
13.3919	1028.15	41.322
13.3965	1021.88	41.3904
13.402	1020.69	41.45874
13.4079	1021.53	41.5271
13.413	1023.32	41.5955
13.4196	1024.66	41.6638
13.4243	1033.63	41.7322
13.4307	1038.7	41.8005
13.4368	1035.83	41.8689
13.4426	1034.41	41.9373
13.4487	1032.32	42.0056
13.4531	1025.66	42.074
13.4592	1021.07	42.1423
13.465	1021.91	42.2107
13.4711	1019.69	42.2791
13.4768	1021.91	42.3474
13.4822	1031.605	42.4158
13.4881	1035.46	42.4841
13.4936	1036.95	42.55249
13.4986	1036.34	42.62085
13.5056	1033.79	42.6892
13.5116	1030.64	42.7576
13.5169	1023.66	42.8259
13.522	1021.106	42.8943
13.5279	1019.49	42.9626
13.5333	1021.01	43.031
13.5392	1027.26	43.0994
13.5449	1031.26	43.1677
13.5509	1034.56	43.2361
13.5555	1037	43.3044
13.5613	1034.28	43.3728
13.5672	1034.58	43.4412
13.57329	1029.83	43.5095
13.57967	1023.08	43.5779
13.58362	1018.29	43.64624
13.5907	1018.48	43.7146
13.5964	1023.61	43.783
13.6019	1027.99	43.8513
13.6079	1031.49	43.9197
13.6125	1035.64	43.988
13.6189	1035.42	44.0564
13.6257	1036.92	44.1248
13.6291	1031.36	44.1931
13.6358	1024.75	44.2615
13.642	1018.13	44.3298
13.6477	1017.59	44.3982
13.6525	1021.12	44.4666
13.6583	1021.93	44.5349
13.6645	1027.67	44.6033
13.6697	1033.25	44.6716
13.6765	1035.41	44.73999
13.6807	1037.69	44.80835
13.6869	1035.49	44.8767
13.693	1027.47	44.9451
13.6994	1019.41	45.0134
13.70454	1018.2	45.0818
13.7108	1019.99	45.1501
13.7159	1019.49	45.2185
13.7218	1026.16	45.2869
13.7276	1031.62	45.3552
13.7339	1032.71	45.4236
13.7382	1036.73	45.4919
13.7453	1037.38	45.5603
13.75	1029.68	45.6287
13.7557	1021.54	45.697
13.7614	1020.99	45.7654
13.76759	1019.97	45.83374
13.7725	1016.502	45.9021
13.7784	1022.33	45.9705
13.784	1029.54	46.0388
13.79033	1030.92	46.1072
13.7963	1036.02	46.1755
13.80024	1038.5	46.2439
13.8072	1034.51	46.3123
13.8118	1024.7	46.3806
13.8186	1024.036	46.449
13.824	1022.35	46.5173
13.8295	1016.27	46.5857
13.8356	1018.98	46.6541
13.8418	1026.11	46.7224
13.8465	1027.16	46.7908
[...]
13.9553	1018.73	48.0896
13.9603	1022.3	48.158
13.9663	1025.82	48.2263
13.97175	1033.41	48.2947
13.9773	1034.6	48.363
13.9839	1033.18	48.4314
13.98948	1031.94	48.4998
13.9952	1029.33	48.5681
14.0003	1023.59	48.6365
14.0063	1018.58	48.7048
14.0124	1016.69	48.7732
14.0184	1018.51	48.8416
14.0238	1024.14	48.9099
14.0284	1028.21	48.9783
14.0356	1031.608	49.0466
14.0406	1032.45	49.11499
14.0457	1034.68	49.18335
14.0515	1030.36	49.2517
14.0567	1025.4	49.3201
14.063	1020.72	49.3884
14.0689	1016.81	49.4568
14.0738	1017.57	49.5251
14.08	1020.48	49.5935
14.0864	1024.79	49.6619
14.0916	1026.83	49.7302
14.0977	1030.16	49.7986
14.103	1035.35	49.8669
14.1091	1033.74	49.9353
14.1152	1028.57	50.0037
14.1202	1022.89	50.072
14.1253	1017.92	50.1404
14.1326	1016.57	50.20874
14.1366	1020.12	50.2771
14.1433	1021.86	50.3455
14.1488	1024.1	50.4138
14.1551	1026.81	50.4822
14.1604	1034.38	50.5505
14.16544	1034.53	50.6189
14.1722	1029.99	50.6873
14.1769	1027.08	50.7556
14.1828	1019.91	50.824
14.1874	1016.86	50.8923
14.1941	1016.8	50.9607
14.2003	1019.324	51.0291
14.2049	1017.37	51.0974
14.2114	1023.49	51.1658
14.2172	1031.31	51.2341
14.2221	1032.64	51.30249
14.2274	1029.74	51.37085
14.2337	1029.15	51.4392
14.2401	1023.72	51.5076
14.2457	1016.39	51.5759
14.2515	1017.26	51.6443
14.2559	1018.12	51.7126
14.2639	1013.55	51.781
14.2688	1018.652	51.8494
14.2738	1030.7	51.9177
14.2791	1030	51.9861
14.285	1031.83	52.0544
14.2913	1030.511	52.1228
14.2969	1026.59	52.1912
14.3016	1021.51	52.2595
14.308	1017.85	52.3279
14.3139	1015.98	52.39624
14.3204	1012.8	52.4646
14.3253	1016.09	52.533
14.33129	1026.885	52.6013
14.3363	1028.64	52.6697
14.3433	1029.78	52.738
14.3472	1030.32	52.8064
14.3537	1029.05	52.8748
14.3601	1025.23	52.9431
14.3651	1019.08	53.0115
14.3702	1017.06	53.0798
14.3766	1013.15	53.1482
14.3826	1012.8	53.2166
14.3873	1021.64	53.2849
14.3933	1023.76	53.3533
14.3997	1025.49	53.4216
14.40449	1030.53	53.48999
14.4105	1029.3	53.55835
14.4156	1028.55	53.6267
14.4218	1022.64	53.6951
14.4278	1017.34	53.7634
14.4339	1012.6	53.8318
14.44	1012.2	53.9001
14.4438	1016.85	53.9685
14.4501	1020.01	54.0369
14.4562	1024.49	54.1052
14.4626	1027.69	54.1736
14.4674	1028.69	54.2419
14.4735	1028.76	54.3103
14.4793	1025.14	54.3787
14.4839	1018.17	54.447
14.491	1012.91	54.5154
14.496	1012.08	54.58374
14.5018	1013.76	54.6521
14.5085	1015.65	54.7205
14.5133	1019.27	54.7888
14.518	1024.34	54.8572
14.5238	1027.348	54.9255
14.5306	1030.28	54.9939
14.5358	1029.125	55.0623
14.5409	1022.77	55.1306
14.5469	1014.65	55.199
14.5533	1012.3	55.2673
14.5584	1011.83	55.3357
14.5648	1012.32	55.4041
14.57	1016.88	55.4724
14.575	1020.24	55.5408
14.5823	1025.201	55.6091
14.5871	1028.939	55.67749
14.5935	1029.99	55.74585
14.5991	1021.04	55.8142
14.6041	1015.6	55.8826
14.6098	1013.64	55.9509
14.6155	1012.08	56.0193
14.6228	1008.97	56.0876
14.6267	1013.24	56.156
14.6317	1016.9	56.2244
14.6394	1019.17	56.2927
14.6447	1026.287	56.3611
14.65	1028.87	56.4294
14.6548	1023.95	56.4978
14.6618	1018.5	56.5662
14.6667	1017.75	56.6345
14.6738	1012.52	56.7029
14.679	1007.85	56.77124
14.6838	1009.22	56.8396
14.6904	1011.83	56.908
14.695	1014.49	56.9763
14.7013	1021.44	57.0447
14.70702	1027.51	57.113
14.7122	1022.64	57.1814
14.7187	1019.08	57.2498
14.7233	1019.46	57.3181
14.73	1013.09	57.3865
14.7348	1005.886	57.4548
14.7411	1006.88	57.5232
14.7468	1008.88	57.5916
14.7523	1009.89	57.6599
14.7579	1015.18	57.7283
14.7639	1020.07	57.7966
14.7696	1019.62	57.86499
14.77564	1017.451	57.93335
14.7806	1017.01	58.0017
14.7859	1010.7	58.0701
14.792	1002.49	58.1384
14.7985	999.276	58.2068
14.8036	997.343	58.2751
14.8096	996.537	58.3435
14.8156	995.7309	58.4119
14.8264	-40.2549	58.4802
14.8282	-31.8644	58.5486
14.8325	-31.6677	58.6169
14.83962	-29.7741	58.6853
14.8444	-33.97086	58.7537
14.85	-40.57383	58.822
14.8559	-46.8487	58.8904
14.86077	-48.6675	58.95874
14.8646	-47.1046	59.0271
14.8724	-44.3026	59.0955
14.87815	-38.758	59.1638
14.8836	-36.3943	59.2322
14.8886	-33.63681	59.3005
14.8959	-31.3013	59.3689
14.9016	-34.1487	59.4373
14.9059	-39.9433	59.5056
14.9132	-41.7232	59.574
14.9181	-45.47356	59.6423
14.9232	-46.5359	59.7107
14.9295	-45.4736	59.7791
14.9352	-41.6889	59.8474
14.9414	-39.59602	59.9158
14.946	-36.0153	59.9841
14.949	-41.5989	60.0134

Data Header:			0.254_solid_uprint_typei_4545_r0			Time:	61.665	s	4/14/2019 4:21:36 AM
Data Acquisition:	Timed
Station Name:	ft40.cfg
Test File Name:	monotonic_0.2540_typei_solid_4545_uprint.tst
Displacement	Force	Running Time
mm	N	s
14.9499	-47.6586	60.0232
14.9513	-47.1917	60.033
14.9514	-37.8219	60.0427
14.9521	-31.0816	60.05249
14.9533	-31.7011	60.0623
14.9543	-42.6446	60.072
14.9543	-46.8954	60.0818
14.9554	-45.7915	60.0916
14.9557	-41.0226	60.1013
14.9565	-32.8736	60.1111
14.9577	-32.0731	60.12085
14.9573	-38.38	60.1306
14.9597	-45.0433	60.1404
14.9605	-49.77602	60.1501
14.961	-43.6408	60.1599
14.96105	-34.0668	60.1697
14.9627	-31.4024	60.1794
14.9633	-35.6748	60.1892
14.9647	-44.1633	60.199
14.965	-47.9056	60.20874
14.9653	-45.1008	60.2185
14.9665	-38.8138	60.2283
14.9675	-33.4504	60.238
14.9676	-32.0984	60.2478
14.9692	-39.8183	60.2576
14.9698	-47.8685	60.2673
14.9708	-47.90646	60.2771
14.9716	-40.1053	60.2869
14.9721	-32.08313	60.2966
14.9727	-34.2592	60.3064
14.9741	-37.4882	60.3162
14.975	-46.5149	60.3259
14.976	-45.77684	60.3357
14.9763	-40.7658	60.3455
14.9761	-38.9953	60.3552
14.97828	-30.9725	60.36499
14.9787	-34.434	60.3748
14.9795	-44.0051	60.3845
14.9803	-46.2694	60.3943
14.9812	-47.5564	60.4041
14.9818	-37.0586	60.4138
14.9834	-33.3628	60.4236
14.9842	-35.3877	60.43335
14.9849	-38.9161	60.4431
14.9858	-43.8378	60.4529
14.9866	-46.0843	60.4626
14.9875	-44.21706	60.4724
14.9869	-37.5404	60.4822
14.9891	-31.0364	60.4919
14.9899	-35.732	60.5017
14.99	-44.1325	60.5115
14.9911	-48.2	60.52124
14.99159	-44.9913	60.531
14.9929	-39.2898	60.5408
14.9928	-35.2244	60.5505
14.9943	-33.3764	60.5603
14.9957	-36.6308	60.5701
14.9956	-45.605	60.5798
14.9966	-47.7603	60.5896
14.9974	-42.3881	60.5994
14.9993	-35.8573	60.6091
14.9985	-29.8557	60.6189
15.0003	-37.7135	60.6287
15.0016	-44.1066	60.6384
15.0019	-47.654	60.6482
15.0019	-45.3206	60.658
15.004	-37.4169	60.6677
15.0034	-31.171	60.67749
15.0063	-33.6227	60.6873
15.0063	-40.6534	60.697
15.0073	-48.2096	60.7068
15.0075	-47.8962	60.7166
15.0078	-39.8702	60.7263
15.0089	-32.7073	60.7361
15.0095	-29.3233	60.74585
15.0116	-39.8249	60.7556
15.0123	-45.0786	60.7654
15.0125	-47.204	60.7751
15.01319	-45.8415	60.7849
15.0149	-34.56329	60.7947
15.0143	-32.0435	60.8044
15.0164	-34.8265	60.8142
15.0164	-40.94	60.824
15.0168	-50.3189	60.83374
15.0177	-45.5679	60.8435
15.0192	-37.3096	60.8533
15.0195	-31.1216	60.863
15.0206	-33.9052	60.8728
15.02179	-43.331	60.8826
15.0216	-47.60487	60.8923
15.0238	-46.5268	60.9021
15.0242	-40.2005	60.9119
15.0244	-33.6498	60.9216
15.0256	-33.3934	60.9314
15.0264	-37.7177	60.9412
15.0254	-46.7436	60.9509
15.0275	-49.286	60.9607
15.0281	-45.0088	60.9705
15.0295	-35.241	60.9802
15.0303	-32.1237	60.98999
15.0312	-37.0938	60.9998
15.032	-43.3145	61.0095
15.0323	-45.3901	61.0193
15.034	-45.9092	61.0291
15.0353	-42.3532	61.0388
15.0353	-32.8454	61.0486
15.0356	-33.1389	61.05835
15.0359	-39.865	61.0681
15.038	-45.8866	61.0779
15.0381	-48.1402	61.0876
15.0403	-41.0528	61.0974
15.04025	-34.9929	61.1072
15.0411	-35.771	61.1169
15.0424	-38.1932	61.1267
15.0422	-44.1676	61.1365
15.0433	-45.9191	61.14624
15.04512	-45.9145	61.156
15.0445	-40.6928	61.1658
15.0454	-31.2953	61.1755
15.0461	-33.9577	61.1853
15.0473	-39.2528	61.1951
15.0479	-47.182	61.2048
15.04868	-47.2201	61.2146
15.05	-40.7407	61.2244
15.0497	-37.1873	61.2341
15.0509	-32.5216	61.2439
15.0519	-37.0905	61.2537
15.0528	-43.4823	61.2634
15.0535	-48.7613	61.2732
15.0549	-46.5342	61.283
15.0552	-37.786	61.2927
15.0564	-30.08419	61.30249
15.0571	-34.7568	61.3123
15.05795	-43.5931	61.322
15.0586	-49.0256	61.3318
15.05951	-47.7502	61.3416
15.06	-41.6774	61.3513
15.0608	-34.7123	61.3611
15.061	-32.5688	61.37085
15.0635	-37.9367	61.3806
15.0646	-46.7896	61.3904
15.0642	-49.0499	61.4001
15.0648	-44.5141	61.4099
15.0663	-34.9813	61.4197
15.0663	-30.6787	61.4294
15.0675	-35.8911	61.4392
15.0691	-44.2909	61.449
15.0683	-48.349	61.45874
15.07078	-46.2527	61.4685
15.0714	-37.0951	61.4783
15.0719	-34.8526	61.488
15.0721	-32.2287	61.4978
15.0737	-39.3021	61.5076
15.0744	-48.86	61.5173
15.07463	-47.5843	61.5271
15.0759	-41.1449	61.5369
15.0768	-31.5042	61.5466
15.0766	-33.1014	61.5564
15.0779	-40.0185	61.5662
15.0786	-43.8891	61.5759
15.08	-47.8421	61.5857
15.0811	-44.0153	61.5955
15.0816	-37.9549	61.6052
15.0827	-33.065	61.61499
15.08379	-34.7097	61.6248
15.0848	-43.3643	61.6345
15.0851	-47.6458	61.6443
15.0857	-44.6441	61.6541